Model,MSO2024
Firmware Version,1.52

Point Format,Y
Horizontal Units,S
Horizontal Scale,0.01
Sample Interval,3.2e-05
Filter Frequency,2e+08
Record Length,3125
Gating,0.0% to 100.0%
Probe Attenuation,1
Vertical Units,V
Vertical Offset,0
Vertical Scale,0.5
Label,
TIME,CH1
7.2400e-03,0.0867187
7.2720e-03,0.0879687
7.3040e-03,0.0917969
7.3360e-03,0.0978906
7.3680e-03,0.0936719
7.4000e-03,0.0908594
7.4320e-03,0.090625
7.4640e-03,0.0891406
7.4960e-03,0.0882812
7.5280e-03,0.0875
7.5600e-03,0.0895313
7.5920e-03,0.09
7.6240e-03,0.0902344
7.6560e-03,0.0880469
7.6880e-03,0.0885938
7.7200e-03,0.0903906
7.7520e-03,0.0890625
7.7840e-03,0.0880469
7.8160e-03,0.0867969
7.8480e-03,0.0866406
7.8800e-03,0.0877344
7.9120e-03,0.089375
7.9440e-03,0.09125
7.9760e-03,0.0900781
8.0080e-03,0.0896875
8.0400e-03,0.0871875
8.0720e-03,0.0886719
8.1040e-03,0.0851563
8.1360e-03,0.08875
8.1680e-03,0.0911719
8.2000e-03,0.0947656
8.2320e-03,0.0978906
8.2640e-03,0.0996094
8.2960e-03,0.0957812
8.3280e-03,0.0954687
8.3600e-03,0.0908594
8.3920e-03,0.0963281
8.4240e-03,0.0959375
8.4560e-03,0.0941406
8.4880e-03,0.0910156
8.5200e-03,0.0989062
8.5520e-03,0.0971875
8.5840e-03,0.0975
8.6160e-03,0.102891
8.6480e-03,0.101484
8.6800e-03,0.101719
8.7120e-03,0.107187
8.7440e-03,0.108281
8.7760e-03,0.106797
8.8080e-03,0.107266
8.8400e-03,0.110625
8.8720e-03,0.11125
8.9040e-03,0.115625
8.9360e-03,0.11625
8.9680e-03,0.113594
9.0000e-03,0.11125
9.0320e-03,0.112109
9.0640e-03,0.112734
9.0960e-03,0.114375
9.1280e-03,0.124219
9.1600e-03,0.124531
9.1920e-03,0.124609
9.2240e-03,0.127578
9.2560e-03,0.128281
9.2880e-03,0.131406
9.3200e-03,0.138281
9.3520e-03,0.137891
9.3840e-03,0.149766
9.4160e-03,0.150859
9.4480e-03,0.156016
9.4800e-03,0.159922
9.5120e-03,0.159062
9.5440e-03,0.165156
9.5760e-03,0.171484
9.6080e-03,0.180391
9.6400e-03,0.187578
9.6720e-03,0.191172
9.7040e-03,0.197734
9.7360e-03,0.213906
9.7680e-03,0.215391
9.8000e-03,0.228906
9.8320e-03,0.231875
9.8640e-03,0.238906
9.8960e-03,0.252891
9.9280e-03,0.253672
9.9600e-03,0.262344
9.9920e-03,0.275156
1.0024e-02,0.275156
1.0056e-02,0.288437
1.0088e-02,0.301016
1.0120e-02,0.303359
1.0152e-02,0.310547
1.0184e-02,0.316641
1.0216e-02,0.335469
1.0248e-02,0.342344
1.0280e-02,0.349531
1.0312e-02,0.353125
1.0344e-02,0.362734
1.0376e-02,0.364141
1.0408e-02,0.36
1.0440e-02,0.368828
1.0472e-02,0.369375
1.0504e-02,0.370078
1.0536e-02,0.366094
1.0568e-02,0.363203
1.0600e-02,0.364609
1.0632e-02,0.360703
1.0664e-02,0.354609
1.0696e-02,0.348203
1.0728e-02,0.351875
1.0760e-02,0.346797
1.0792e-02,0.346328
1.0824e-02,0.326875
1.0856e-02,0.315469
1.0888e-02,0.3075
1.0920e-02,0.303828
1.0952e-02,0.292344
1.0984e-02,0.278906
1.1016e-02,0.258984
1.1048e-02,0.247734
1.1080e-02,0.247578
1.1112e-02,0.245391
1.1144e-02,0.237109
1.1176e-02,0.227266
1.1208e-02,0.225937
1.1240e-02,0.234063
1.1272e-02,0.229375
1.1304e-02,0.225156
1.1336e-02,0.219453
1.1368e-02,0.218828
1.1400e-02,0.212969
1.1432e-02,0.211172
1.1464e-02,0.208906
1.1496e-02,0.213516
1.1528e-02,0.213203
1.1560e-02,0.2175
1.1592e-02,0.2225
1.1624e-02,0.22375
1.1656e-02,0.227266
1.1688e-02,0.230234
1.1720e-02,0.238125
1.1752e-02,0.236094
1.1784e-02,0.242031
1.1816e-02,0.239062
1.1848e-02,0.234766
1.1880e-02,0.248828
1.1912e-02,0.254766
1.1944e-02,0.262266
1.1976e-02,0.262812
1.2008e-02,0.266719
1.2040e-02,0.272031
1.2072e-02,0.277266
1.2104e-02,0.291094
1.2136e-02,0.295781
1.2168e-02,0.299297
1.2200e-02,0.315937
1.2232e-02,0.330469
1.2264e-02,0.347187
1.2296e-02,0.356875
1.2328e-02,0.375703
1.2360e-02,0.396172
1.2392e-02,0.405
1.2424e-02,0.425937
1.2456e-02,0.464375
1.2488e-02,0.509297
1.2520e-02,0.539453
1.2552e-02,0.583125
1.2584e-02,0.615938
1.2616e-02,0.655312
1.2648e-02,0.697188
1.2680e-02,0.743437
1.2712e-02,0.789453
1.2744e-02,0.829453
1.2776e-02,0.877969
1.2808e-02,0.943984
1.2840e-02,0.979453
1.2872e-02,1.04414
1.2904e-02,1.07937
1.2936e-02,1.13906
1.2968e-02,1.18906
1.3000e-02,1.24219
1.3032e-02,1.29742
1.3064e-02,1.33297
1.3096e-02,1.37547
1.3128e-02,1.42539
1.3160e-02,1.43289
1.3192e-02,1.47266
1.3224e-02,1.44836
1.3256e-02,1.47023
1.3288e-02,1.46656
1.3320e-02,1.4707
1.3352e-02,1.46914
1.3384e-02,1.48469
1.3416e-02,1.45
1.3448e-02,1.42219
1.3480e-02,1.36789
1.3512e-02,1.3307
1.3544e-02,1.28422
1.3576e-02,1.25891
1.3608e-02,1.22797
1.3640e-02,1.17906
1.3672e-02,1.13148
1.3704e-02,1.08648
1.3736e-02,1.01859
1.3768e-02,0.961016
1.3800e-02,0.919922
1.3832e-02,0.8725
1.3864e-02,0.839375
1.3896e-02,0.794297
1.3928e-02,0.751328
1.3960e-02,0.718906
1.3992e-02,0.681328
1.4024e-02,0.663594
1.4056e-02,0.642344
1.4088e-02,0.619844
1.4120e-02,0.597578
1.4152e-02,0.5825
1.4184e-02,0.567734
1.4216e-02,0.565937
1.4248e-02,0.569375
1.4280e-02,0.56125
1.4312e-02,0.559375
1.4344e-02,0.552344
1.4376e-02,0.554297
1.4408e-02,0.553828
1.4440e-02,0.560469
1.4472e-02,0.576875
1.4504e-02,0.578125
1.4536e-02,0.595859
1.4568e-02,0.600859
1.4600e-02,0.620234
1.4632e-02,0.629453
1.4664e-02,0.637422
1.4696e-02,0.644453
1.4728e-02,0.663594
1.4760e-02,0.688047
1.4792e-02,0.701094
1.4824e-02,0.700781
1.4856e-02,0.719297
1.4888e-02,0.733594
1.4920e-02,0.761875
1.4952e-02,0.780781
1.4984e-02,0.790156
1.5016e-02,0.812891
1.5048e-02,0.834141
1.5080e-02,0.838828
1.5112e-02,0.848984
1.5144e-02,0.880469
1.5176e-02,0.898672
1.5208e-02,0.955547
1.5240e-02,1.00203
1.5272e-02,1.0443
1.5304e-02,1.10734
1.5336e-02,1.1718
1.5368e-02,1.22789
1.5400e-02,1.29312
1.5432e-02,1.37414
1.5464e-02,1.4507
1.5496e-02,1.56414
1.5528e-02,1.63305
1.5560e-02,1.70906
1.5592e-02,1.79461
1.5624e-02,1.85844
1.5656e-02,1.95531
1.5688e-02,2.04391
1.5720e-02,2.10984
1.5752e-02,2.17547
1.5784e-02,2.23945
1.5816e-02,2.27227
1.5848e-02,2.27312
1.5880e-02,2.27711
1.5912e-02,2.28328
1.5944e-02,2.28094
1.5976e-02,2.26195
1.6008e-02,2.23594
1.6040e-02,2.1925
1.6072e-02,2.13758
1.6104e-02,2.0668
1.6136e-02,1.98789
1.6168e-02,1.89273
1.6200e-02,1.80289
1.6232e-02,1.69578
1.6264e-02,1.59273
1.6296e-02,1.49398
1.6328e-02,1.39195
1.6360e-02,1.30008
1.6392e-02,1.18672
1.6424e-02,1.0882
1.6456e-02,1.01609
1.6488e-02,0.938047
1.6520e-02,0.863047
1.6552e-02,0.807969
1.6584e-02,0.747344
1.6616e-02,0.690547
1.6648e-02,0.640313
1.6680e-02,0.614219
1.6712e-02,0.593047
1.6744e-02,0.56625
1.6776e-02,0.545156
1.6808e-02,0.526563
1.6840e-02,0.519688
1.6872e-02,0.515625
1.6904e-02,0.512188
1.6936e-02,0.497109
1.6968e-02,0.491016
1.7000e-02,0.491562
1.7032e-02,0.493984
1.7064e-02,0.491875
1.7096e-02,0.4775
1.7128e-02,0.462422
1.7160e-02,0.456641
1.7192e-02,0.452187
1.7224e-02,0.450391
1.7256e-02,0.449688
1.7288e-02,0.449688
1.7320e-02,0.445078
1.7352e-02,0.44125
1.7384e-02,0.424531
1.7416e-02,0.415391
1.7448e-02,0.410391
1.7480e-02,0.41125
1.7512e-02,0.419375
1.7544e-02,0.451797
1.7576e-02,0.470859
1.7608e-02,0.495078
1.7640e-02,0.525547
1.7672e-02,0.558359
1.7704e-02,0.589297
1.7736e-02,0.641953
1.7768e-02,0.694844
1.7800e-02,0.736484
1.7832e-02,0.798672
1.7864e-02,0.852422
1.7896e-02,0.895234
1.7928e-02,0.955391
1.7960e-02,1.03828
1.7992e-02,1.09102
1.8024e-02,1.1293
1.8056e-02,1.19781
1.8088e-02,1.25055
1.8120e-02,1.2932
1.8152e-02,1.34477
1.8184e-02,1.37008
1.8216e-02,1.38328
1.8248e-02,1.41906
1.8280e-02,1.44492
1.8312e-02,1.46992
1.8344e-02,1.46156
1.8376e-02,1.43477
1.8408e-02,1.41984
1.8440e-02,1.39086
1.8472e-02,1.36602
1.8504e-02,1.35219
1.8536e-02,1.31344
1.8568e-02,1.24562
1.8600e-02,1.17211
1.8632e-02,1.11883
1.8664e-02,1.05531
1.8696e-02,1.01281
1.8728e-02,0.955781
1.8760e-02,0.890156
1.8792e-02,0.818359
1.8824e-02,0.755
1.8856e-02,0.689453
1.8888e-02,0.621406
1.8920e-02,0.561094
1.8952e-02,0.505156
1.8984e-02,0.465469
1.9016e-02,0.428828
1.9048e-02,0.401016
1.9080e-02,0.370313
1.9112e-02,0.345547
1.9144e-02,0.323906
1.9176e-02,0.295234
1.9208e-02,0.278672
1.9240e-02,0.265625
1.9272e-02,0.256094
1.9304e-02,0.247031
1.9336e-02,0.243516
1.9368e-02,0.235469
1.9400e-02,0.228594
1.9432e-02,0.210703
1.9464e-02,0.201797
1.9496e-02,0.196094
1.9528e-02,0.190703
1.9560e-02,0.183359
1.9592e-02,0.1775
1.9624e-02,0.175234
1.9656e-02,0.16875
1.9688e-02,0.173437
1.9720e-02,0.176875
1.9752e-02,0.174141
1.9784e-02,0.177109
1.9816e-02,0.176406
1.9848e-02,0.176797
1.9880e-02,0.181406
1.9912e-02,0.182969
1.9944e-02,0.179141
1.9976e-02,0.181094
2.0008e-02,0.181172
2.0040e-02,0.186797
2.0072e-02,0.186719
2.0104e-02,0.188828
2.0136e-02,0.204141
2.0168e-02,0.210547
2.0200e-02,0.215547
2.0232e-02,0.219766
2.0264e-02,0.228203
2.0296e-02,0.235625
2.0328e-02,0.244687
2.0360e-02,0.247812
2.0392e-02,0.243125
2.0424e-02,0.24375
2.0456e-02,0.246563
2.0488e-02,0.250469
2.0520e-02,0.251797
2.0552e-02,0.255625
2.0584e-02,0.256484
2.0616e-02,0.264531
2.0648e-02,0.267187
2.0680e-02,0.269219
2.0712e-02,0.267891
2.0744e-02,0.26625
2.0776e-02,0.253594
2.0808e-02,0.245391
2.0840e-02,0.229766
2.0872e-02,0.228281
2.0904e-02,0.219531
2.0936e-02,0.205937
2.0968e-02,0.196875
2.1000e-02,0.187344
2.1032e-02,0.17625
2.1064e-02,0.163516
2.1096e-02,0.148125
2.1128e-02,0.143516
2.1160e-02,0.129375
2.1192e-02,0.121328
2.1224e-02,0.111875
2.1256e-02,0.103203
2.1288e-02,0.0975
2.1320e-02,0.0898438
2.1352e-02,0.0890625
2.1384e-02,0.0858594
2.1416e-02,0.0815625
2.1448e-02,0.0814062
2.1480e-02,0.0819531
2.1512e-02,0.0820312
2.1544e-02,0.0783594
2.1576e-02,0.0780469
2.1608e-02,0.0764844
2.1640e-02,0.0707813
2.1672e-02,0.0697656
2.1704e-02,0.0673438
2.1736e-02,0.0695313
2.1768e-02,0.0692187
2.1800e-02,0.0692969
2.1832e-02,0.0683594
2.1864e-02,0.0673438
2.1896e-02,0.0663281
2.1928e-02,0.0609375
2.1960e-02,0.0621875
2.1992e-02,0.0646875
2.2024e-02,0.0661719
2.2056e-02,0.0619531
2.2088e-02,0.0664062
2.2120e-02,0.0657812
2.2152e-02,0.0645312
2.2184e-02,0.0616406
2.2216e-02,0.0607813
2.2248e-02,0.0595313
2.2280e-02,0.0665625
2.2312e-02,0.0696875
2.2344e-02,0.0677344
2.2376e-02,0.066875
2.2408e-02,0.0685938
2.2440e-02,0.0663281
2.2472e-02,0.0649219
2.2504e-02,0.0661719
2.2536e-02,0.0675
2.2568e-02,0.06375
2.2600e-02,0.0671094
2.2632e-02,0.0701562
2.2664e-02,0.0675781
2.2696e-02,0.0698437
2.2728e-02,0.07
2.2760e-02,0.0699219
2.2792e-02,0.0732812
2.2824e-02,0.0725
2.2856e-02,0.0750781
2.2888e-02,0.0745312
2.2920e-02,0.0725781
2.2952e-02,0.0703125
2.2984e-02,0.0753125
2.3016e-02,0.0698437
2.3048e-02,0.0683594
2.3080e-02,0.0671094
2.3112e-02,0.0697656
2.3144e-02,0.0689062
2.3176e-02,0.0657812
2.3208e-02,0.0609375
2.3240e-02,0.0575781
2.3272e-02,0.0614062
2.3304e-02,0.0628125
2.3336e-02,0.0640625
2.3368e-02,0.0634375
2.3400e-02,0.0640625
2.3432e-02,0.0610937
2.3464e-02,0.0602344
2.3496e-02,0.0603125
2.3528e-02,0.0620312
2.3560e-02,0.0573438
2.3592e-02,0.0565625
2.3624e-02,0.0571875
2.3656e-02,0.0567187
2.3688e-02,0.0530469
2.3720e-02,0.0548437
2.3752e-02,0.0528906
2.3784e-02,0.0553125
2.3816e-02,0.0533594
2.3848e-02,0.0517188
2.3880e-02,0.0553125
2.3912e-02,0.0516406
2.3944e-02,0.0520312
2.3976e-02,0.050625
2.4008e-02,0.0534375
2.4040e-02,0.0527344
2.4072e-02,0.055
2.4104e-02,0.0547656
2.4136e-02,0.0560156
2.4168e-02,0.0544531
2.4200e-02,0.0508594
2.4232e-02,0.0499219
2.4264e-02,0.0511719
2.4296e-02,0.0523437
2.4328e-02,0.0541406
2.4360e-02,0.0571875
2.4392e-02,0.0601562
2.4424e-02,0.0585938
2.4456e-02,0.05875
2.4488e-02,0.0570312
2.4520e-02,0.0558594
2.4552e-02,0.0544531
2.4584e-02,0.0582031
2.4616e-02,0.0613281
2.4648e-02,0.0594531
2.4680e-02,0.0571094
2.4712e-02,0.0570312
2.4744e-02,0.0564844
2.4776e-02,0.0588281
2.4808e-02,0.0565625
2.4840e-02,0.056875
2.4872e-02,0.0588281
2.4904e-02,0.0598437
2.4936e-02,0.058125
2.4968e-02,0.05625
2.5000e-02,0.064375
2.5032e-02,0.0660938
2.5064e-02,0.0635156
2.5096e-02,0.0607031
2.5128e-02,0.0625
2.5160e-02,0.0609375
2.5192e-02,0.0619531
2.5224e-02,0.0616406
2.5256e-02,0.0592187
2.5288e-02,0.0616406
2.5320e-02,0.0639063
2.5352e-02,0.0659375
2.5384e-02,0.068125
2.5416e-02,0.0679687
2.5448e-02,0.069375
2.5480e-02,0.0676562
2.5512e-02,0.0660156
2.5544e-02,0.0661719
2.5576e-02,0.0659375
2.5608e-02,0.0635156
2.5640e-02,0.0657031
2.5672e-02,0.0625781
2.5704e-02,0.0601562
2.5736e-02,0.0639063
2.5768e-02,0.0625781
2.5800e-02,0.0614062
2.5832e-02,0.0620312
2.5864e-02,0.0622656
2.5896e-02,0.0621875
2.5928e-02,0.0597656
2.5960e-02,0.0597656
2.5992e-02,0.0603906
2.6024e-02,0.0609375
2.6056e-02,0.0582031
2.6088e-02,0.0567969
2.6120e-02,0.0573438
2.6152e-02,0.05375
2.6184e-02,0.053125
2.6216e-02,0.0545312
2.6248e-02,0.0549219
2.6280e-02,0.0574219
2.6312e-02,0.0547656
2.6344e-02,0.0511719
2.6376e-02,0.0546094
2.6408e-02,0.0542969
2.6440e-02,0.0504688
2.6472e-02,0.0519531
2.6504e-02,0.0536719
2.6536e-02,0.0589062
2.6568e-02,0.0582031
2.6600e-02,0.054375
2.6632e-02,0.0547656
2.6664e-02,0.0560938
2.6696e-02,0.0503906
2.6728e-02,0.0503906
2.6760e-02,0.05
2.6792e-02,0.0491406
2.6824e-02,0.0505469
2.6856e-02,0.0503906
2.6888e-02,0.0501562
2.6920e-02,0.0548437
2.6952e-02,0.0566406
2.6984e-02,0.0528125
2.7016e-02,0.0541406
2.7048e-02,0.0538281
2.7080e-02,0.0535937
2.7112e-02,0.0516406
2.7144e-02,0.0498437
2.7176e-02,0.0499219
2.7208e-02,0.0498437
2.7240e-02,0.05
2.7272e-02,0.0517969
2.7304e-02,0.0504688
2.7336e-02,0.0503906
2.7368e-02,0.05
2.7400e-02,0.0516406
2.7432e-02,0.0510937
2.7464e-02,0.0507812
2.7496e-02,0.05
2.7528e-02,0.0500781
2.7560e-02,0.0503125
2.7592e-02,0.0534375
2.7624e-02,0.0569531
2.7656e-02,0.0555469
2.7688e-02,0.0539063
2.7720e-02,0.0535156
2.7752e-02,0.0523437
2.7784e-02,0.0510937
2.7816e-02,0.0514062
2.7848e-02,0.0535937
2.7880e-02,0.0527344
2.7912e-02,0.0541406
2.7944e-02,0.0575
2.7976e-02,0.0563281
2.8008e-02,0.0570312
2.8040e-02,0.0539844
2.8072e-02,0.0522656
2.8104e-02,0.0547656
2.8136e-02,0.0577344
2.8168e-02,0.0567969
2.8200e-02,0.0580469
2.8232e-02,0.0552344
2.8264e-02,0.0550781
2.8296e-02,0.0588281
2.8328e-02,0.0590625
2.8360e-02,0.0595313
2.8392e-02,0.0542187
2.8424e-02,0.059375
2.8456e-02,0.0564844
2.8488e-02,0.0536719
2.8520e-02,0.0538281
2.8552e-02,0.0549219
2.8584e-02,0.054375
2.8616e-02,0.0553906
2.8648e-02,0.0578906
2.8680e-02,0.0546094
2.8712e-02,0.0567969
2.8744e-02,0.0522656
2.8776e-02,0.055625
2.8808e-02,0.0567969
2.8840e-02,0.055625
2.8872e-02,0.0521875
2.8904e-02,0.0546094
2.8936e-02,0.0534375
2.8968e-02,0.0526562
2.9000e-02,0.0566406
2.9032e-02,0.0526562
2.9064e-02,0.0507812
2.9096e-02,0.0578906
2.9128e-02,0.0557031
2.9160e-02,0.0535937
2.9192e-02,0.0538281
2.9224e-02,0.0560156
2.9256e-02,0.0557812
2.9288e-02,0.054375
2.9320e-02,0.053125
2.9352e-02,0.0535937
2.9384e-02,0.056875
2.9416e-02,0.0547656
2.9448e-02,0.0528906
2.9480e-02,0.0538281
2.9512e-02,0.0557031
2.9544e-02,0.0607813
2.9576e-02,0.0585938
2.9608e-02,0.0534375
2.9640e-02,0.0546094
2.9672e-02,0.058125
2.9704e-02,0.0540625
2.9736e-02,0.0569531
2.9768e-02,0.0567969
2.9800e-02,0.0560156
2.9832e-02,0.0559375
2.9864e-02,0.059375
2.9896e-02,0.06
2.9928e-02,0.0589062
2.9960e-02,0.0614844
2.9992e-02,0.0638281
3.0024e-02,0.0628906
3.0056e-02,0.0654687
3.0088e-02,0.0619531
3.0120e-02,0.0636719
3.0152e-02,0.0667969
3.0184e-02,0.0675
3.0216e-02,0.0667969
3.0248e-02,0.07
3.0280e-02,0.0703125
3.0312e-02,0.0710156
3.0344e-02,0.0732031
3.0376e-02,0.0730469
3.0408e-02,0.07125
3.0440e-02,0.0732031
3.0472e-02,0.0701562
3.0504e-02,0.0682031
3.0536e-02,0.0661719
3.0568e-02,0.068125
3.0600e-02,0.0700781
3.0632e-02,0.070625
3.0664e-02,0.0710156
3.0696e-02,0.0704687
3.0728e-02,0.0701562
3.0760e-02,0.0696094
3.0792e-02,0.0654687
3.0824e-02,0.0698437
3.0856e-02,0.066875
3.0888e-02,0.0642969
3.0920e-02,0.0672656
3.0952e-02,0.0689062
3.0984e-02,0.0685938
3.1016e-02,0.0659375
3.1048e-02,0.0635156
3.1080e-02,0.0614062
3.1112e-02,0.06125
3.1144e-02,0.0600781
3.1176e-02,0.0664062
3.1208e-02,0.0684375
3.1240e-02,0.0692969
3.1272e-02,0.0699219
3.1304e-02,0.0696875
3.1336e-02,0.0723437
3.1368e-02,0.0710156
3.1400e-02,0.0696875
3.1432e-02,0.0698437
3.1464e-02,0.0664062
3.1496e-02,0.0692187
3.1528e-02,0.0703125
3.1560e-02,0.0713281
3.1592e-02,0.0733594
3.1624e-02,0.0785938
3.1656e-02,0.0784375
3.1688e-02,0.0795313
3.1720e-02,0.0744531
3.1752e-02,0.0740625
3.1784e-02,0.0764844
3.1816e-02,0.0778906
3.1848e-02,0.08375
3.1880e-02,0.0841406
3.1912e-02,0.0835937
3.1944e-02,0.0873438
3.1976e-02,0.0925
3.2008e-02,0.0952344
3.2040e-02,0.0996094
3.2072e-02,0.0985156
3.2104e-02,0.102031
3.2136e-02,0.105781
3.2168e-02,0.110703
3.2200e-02,0.121406
3.2232e-02,0.125781
3.2264e-02,0.134375
3.2296e-02,0.148281
3.2328e-02,0.159531
3.2360e-02,0.169297
3.2392e-02,0.186875
3.2424e-02,0.202578
3.2456e-02,0.211719
3.2488e-02,0.223359
3.2520e-02,0.241484
3.2552e-02,0.254844
3.2584e-02,0.271016
3.2616e-02,0.285312
3.2648e-02,0.295625
3.2680e-02,0.296484
3.2712e-02,0.301953
3.2744e-02,0.310469
3.2776e-02,0.311406
3.2808e-02,0.320234
3.2840e-02,0.325937
3.2872e-02,0.3325
3.2904e-02,0.332109
3.2936e-02,0.326641
3.2968e-02,0.318906
3.3000e-02,0.327109
3.3032e-02,0.319453
3.3064e-02,0.304531
3.3096e-02,0.28875
3.3128e-02,0.280625
3.3160e-02,0.276641
3.3192e-02,0.263672
3.3224e-02,0.261016
3.3256e-02,0.254062
3.3288e-02,0.240703
3.3320e-02,0.232031
3.3352e-02,0.228125
3.3384e-02,0.21875
3.3416e-02,0.214141
3.3448e-02,0.208047
3.3480e-02,0.209141
3.3512e-02,0.2075
3.3544e-02,0.210156
3.3576e-02,0.21
3.3608e-02,0.220469
3.3640e-02,0.230703
3.3672e-02,0.234063
3.3704e-02,0.243594
3.3736e-02,0.251953
3.3768e-02,0.261953
3.3800e-02,0.266328
3.3832e-02,0.275391
3.3864e-02,0.293984
3.3896e-02,0.298672
3.3928e-02,0.319063
3.3960e-02,0.346328
3.3992e-02,0.371016
3.4024e-02,0.399844
3.4056e-02,0.430391
3.4088e-02,0.469062
3.4120e-02,0.495234
3.4152e-02,0.546484
3.4184e-02,0.591484
3.4216e-02,0.654687
3.4248e-02,0.719844
3.4280e-02,0.763203
3.4312e-02,0.831484
3.4344e-02,0.895156
3.4376e-02,0.959375
3.4408e-02,1.02234
3.4440e-02,1.07297
3.4472e-02,1.14812
3.4504e-02,1.20437
3.4536e-02,1.23672
3.4568e-02,1.26352
3.4600e-02,1.30711
3.4632e-02,1.35383
3.4664e-02,1.37133
3.4696e-02,1.37914
3.4728e-02,1.37242
3.4760e-02,1.37031
3.4792e-02,1.36805
3.4824e-02,1.36172
3.4856e-02,1.34477
3.4888e-02,1.32859
3.4920e-02,1.29367
3.4952e-02,1.25695
3.4984e-02,1.21711
3.5016e-02,1.15977
3.5048e-02,1.11102
3.5080e-02,1.05758
3.5112e-02,1.00602
3.5144e-02,0.956562
3.5176e-02,0.902891
3.5208e-02,0.855547
3.5240e-02,0.807422
3.5272e-02,0.771328
3.5304e-02,0.720234
3.5336e-02,0.68
3.5368e-02,0.638906
3.5400e-02,0.626172
3.5432e-02,0.608828
3.5464e-02,0.590859
3.5496e-02,0.583984
3.5528e-02,0.577813
3.5560e-02,0.567187
3.5592e-02,0.570391
3.5624e-02,0.584844
3.5656e-02,0.596406
3.5688e-02,0.595391
3.5720e-02,0.612891
3.5752e-02,0.631875
3.5784e-02,0.635625
3.5816e-02,0.645781
3.5848e-02,0.653437
3.5880e-02,0.672578
3.5912e-02,0.68625
3.5944e-02,0.709062
3.5976e-02,0.718594
3.6008e-02,0.722031
3.6040e-02,0.745937
3.6072e-02,0.770078
3.6104e-02,0.822656
3.6136e-02,0.874141
3.6168e-02,0.908984
3.6200e-02,0.944141
3.6232e-02,1.00625
3.6264e-02,1.05047
3.6296e-02,1.11437
3.6328e-02,1.17898
3.6360e-02,1.26766
3.6392e-02,1.34969
3.6424e-02,1.41922
3.6456e-02,1.50234
3.6488e-02,1.57617
3.6520e-02,1.66195
3.6552e-02,1.72578
3.6584e-02,1.81422
3.6616e-02,1.90086
3.6648e-02,1.9543
3.6680e-02,1.99273
3.6712e-02,2.04562
3.6744e-02,2.08695
3.6776e-02,2.11828
3.6808e-02,2.12844
3.6840e-02,2.11578
3.6872e-02,2.10883
3.6904e-02,2.04859
3.6936e-02,2.02219
3.6968e-02,1.9757
3.7000e-02,1.93383
3.7032e-02,1.88109
3.7064e-02,1.80992
3.7096e-02,1.70625
3.7128e-02,1.62523
3.7160e-02,1.53531
3.7192e-02,1.44031
3.7224e-02,1.35055
3.7256e-02,1.24867
3.7288e-02,1.14234
3.7320e-02,1.05203
3.7352e-02,0.966719
3.7384e-02,0.906953
3.7416e-02,0.840234
3.7448e-02,0.767813
3.7480e-02,0.703984
3.7512e-02,0.66
3.7544e-02,0.620313
3.7576e-02,0.579531
3.7608e-02,0.550156
3.7640e-02,0.536328
3.7672e-02,0.513125
3.7704e-02,0.494063
3.7736e-02,0.478203
3.7768e-02,0.481562
3.7800e-02,0.473594
3.7832e-02,0.465859
3.7864e-02,0.455937
3.7896e-02,0.459688
3.7928e-02,0.461484
3.7960e-02,0.461094
3.7992e-02,0.467187
3.8024e-02,0.463984
3.8056e-02,0.465625
3.8088e-02,0.450547
3.8120e-02,0.451797
3.8152e-02,0.460859
3.8184e-02,0.491484
3.8216e-02,0.514141
3.8248e-02,0.536172
3.8280e-02,0.563594
3.8312e-02,0.591406
3.8344e-02,0.625078
3.8376e-02,0.678516
3.8408e-02,0.729141
3.8440e-02,0.779375
3.8472e-02,0.831406
3.8504e-02,0.910703
3.8536e-02,0.950703
3.8568e-02,0.999219
3.8600e-02,1.05563
3.8632e-02,1.12133
3.8664e-02,1.18992
3.8696e-02,1.2075
3.8728e-02,1.25242
3.8760e-02,1.26945
3.8792e-02,1.29438
3.8824e-02,1.32578
3.8856e-02,1.3318
3.8888e-02,1.3482
3.8920e-02,1.34781
3.8952e-02,1.33859
3.8984e-02,1.30375
3.9016e-02,1.28828
3.9048e-02,1.24086
3.9080e-02,1.21641
3.9112e-02,1.16461
3.9144e-02,1.10547
3.9176e-02,1.04234
3.9208e-02,0.992812
3.9240e-02,0.944687
3.9272e-02,0.876328
3.9304e-02,0.812734
3.9336e-02,0.744141
3.9368e-02,0.686094
3.9400e-02,0.638516
3.9432e-02,0.582344
3.9464e-02,0.529922
3.9496e-02,0.480469
3.9528e-02,0.427812
3.9560e-02,0.399375
3.9592e-02,0.361797
3.9624e-02,0.327813
3.9656e-02,0.303906
3.9688e-02,0.279453
3.9720e-02,0.258203
3.9752e-02,0.249375
3.9784e-02,0.231016
3.9816e-02,0.229531
3.9848e-02,0.218438
3.9880e-02,0.209688
3.9912e-02,0.208984
3.9944e-02,0.195
3.9976e-02,0.189062
4.0008e-02,0.19
4.0040e-02,0.191094
4.0072e-02,0.188203
4.0104e-02,0.186875
4.0136e-02,0.185859
4.0168e-02,0.18125
4.0200e-02,0.180469
4.0232e-02,0.177031
4.0264e-02,0.177031
4.0296e-02,0.178594
4.0328e-02,0.180156
4.0360e-02,0.183437
4.0392e-02,0.189609
4.0424e-02,0.194297
4.0456e-02,0.201484
4.0488e-02,0.211719
4.0520e-02,0.215156
4.0552e-02,0.218203
4.0584e-02,0.228438
4.0616e-02,0.230859
4.0648e-02,0.244141
4.0680e-02,0.242109
4.0712e-02,0.244063
4.0744e-02,0.2525
4.0776e-02,0.252734
4.0808e-02,0.252812
4.0840e-02,0.249375
4.0872e-02,0.247344
4.0904e-02,0.238828
4.0936e-02,0.238359
4.0968e-02,0.235937
4.1000e-02,0.233359
4.1032e-02,0.228594
4.1064e-02,0.225781
4.1096e-02,0.21875
4.1128e-02,0.216016
4.1160e-02,0.212031
4.1192e-02,0.199688
4.1224e-02,0.189219
4.1256e-02,0.191484
4.1288e-02,0.182266
4.1320e-02,0.170391
4.1352e-02,0.164062
4.1384e-02,0.151016
4.1416e-02,0.133516
4.1448e-02,0.124844
4.1480e-02,0.112656
4.1512e-02,0.103359
4.1544e-02,0.0992969
4.1576e-02,0.091875
4.1608e-02,0.0839063
4.1640e-02,0.0816406
4.1672e-02,0.080625
4.1704e-02,0.0726562
4.1736e-02,0.0695313
4.1768e-02,0.0666406
4.1800e-02,0.0696094
4.1832e-02,0.0665625
4.1864e-02,0.068125
4.1896e-02,0.0686719
4.1928e-02,0.0646875
4.1960e-02,0.0657812
4.1992e-02,0.0628125
4.2024e-02,0.0632812
4.2056e-02,0.06625
4.2088e-02,0.0660938
4.2120e-02,0.0695313
4.2152e-02,0.0704687
4.2184e-02,0.0678906
4.2216e-02,0.0682031
4.2248e-02,0.0660938
4.2280e-02,0.0676562
4.2312e-02,0.066875
4.2344e-02,0.0694531
4.2376e-02,0.0667187
4.2408e-02,0.0675
4.2440e-02,0.0702344
4.2472e-02,0.0651563
4.2504e-02,0.0645312
4.2536e-02,0.0621875
4.2568e-02,0.0641406
4.2600e-02,0.0675781
4.2632e-02,0.071875
4.2664e-02,0.0686719
4.2696e-02,0.0689062
4.2728e-02,0.069375
4.2760e-02,0.0676562
4.2792e-02,0.0690625
4.2824e-02,0.0678125
4.2856e-02,0.0708594
4.2888e-02,0.0702344
4.2920e-02,0.0702344
4.2952e-02,0.0701562
4.2984e-02,0.0700781
4.3016e-02,0.0700781
4.3048e-02,0.0701562
4.3080e-02,0.065
4.3112e-02,0.0633594
4.3144e-02,0.05875
4.3176e-02,0.0569531
4.3208e-02,0.059375
4.3240e-02,0.056875
4.3272e-02,0.0628906
4.3304e-02,0.0636719
4.3336e-02,0.0646094
4.3368e-02,0.0638281
4.3400e-02,0.0629688
4.3432e-02,0.0594531
4.3464e-02,0.0582813
4.3496e-02,0.0614062
4.3528e-02,0.0617188
4.3560e-02,0.0601562
4.3592e-02,0.0596875
4.3624e-02,0.0621094
4.3656e-02,0.0575
4.3688e-02,0.0582031
4.3720e-02,0.0585156
4.3752e-02,0.0578906
4.3784e-02,0.0557812
4.3816e-02,0.0550781
4.3848e-02,0.0535156
4.3880e-02,0.0566406
4.3912e-02,0.0567969
4.3944e-02,0.0565625
4.3976e-02,0.0532031
4.4008e-02,0.0507031
4.4040e-02,0.0516406
4.4072e-02,0.0525781
4.4104e-02,0.0524219
4.4136e-02,0.0532031
4.4168e-02,0.0553906
4.4200e-02,0.0580469
4.4232e-02,0.0547656
4.4264e-02,0.0554687
4.4296e-02,0.0548437
4.4328e-02,0.0546094
4.4360e-02,0.05375
4.4392e-02,0.05
4.4424e-02,0.0546875
4.4456e-02,0.055
4.4488e-02,0.0582031
4.4520e-02,0.0582031
4.4552e-02,0.0619531
4.4584e-02,0.0592187
4.4616e-02,0.0588281
4.4648e-02,0.0611719
4.4680e-02,0.0601562
4.4712e-02,0.06
4.4744e-02,0.0602344
4.4776e-02,0.0608594
4.4808e-02,0.0603906
4.4840e-02,0.0617188
4.4872e-02,0.0642969
4.4904e-02,0.0667187
4.4936e-02,0.0654687
4.4968e-02,0.0667187
4.5000e-02,0.0648437
4.5032e-02,0.064375
4.5064e-02,0.0635937
4.5096e-02,0.061875
4.5128e-02,0.0628906
4.5160e-02,0.0638281
4.5192e-02,0.0640625
4.5224e-02,0.0638281
4.5256e-02,0.0598437
4.5288e-02,0.0628906
4.5320e-02,0.0653125
4.5352e-02,0.06375
4.5384e-02,0.0630469
4.5416e-02,0.0615625
4.5448e-02,0.059375
4.5480e-02,0.0586719
4.5512e-02,0.0603906
4.5544e-02,0.0598437
4.5576e-02,0.0574219
4.5608e-02,0.0585156
4.5640e-02,0.0575
4.5672e-02,0.0580469
4.5704e-02,0.0544531
4.5736e-02,0.0565625
4.5768e-02,0.0585156
4.5800e-02,0.0553125
4.5832e-02,0.0548437
4.5864e-02,0.0525
4.5896e-02,0.0511719
4.5928e-02,0.0532812
4.5960e-02,0.0546875
4.5992e-02,0.0567187
4.6024e-02,0.0541406
4.6056e-02,0.0557812
4.6088e-02,0.0541406
4.6120e-02,0.0552344
4.6152e-02,0.0532812
4.6184e-02,0.0539063
4.6216e-02,0.0530469
4.6248e-02,0.0524219
4.6280e-02,0.0536719
4.6312e-02,0.0515625
4.6344e-02,0.0501562
4.6376e-02,0.0533594
4.6408e-02,0.0514844
4.6440e-02,0.0502344
4.6472e-02,0.051875
4.6504e-02,0.05
4.6536e-02,0.0503906
4.6568e-02,0.0541406
4.6600e-02,0.0550781
4.6632e-02,0.05625
4.6664e-02,0.0544531
4.6696e-02,0.0523437
4.6728e-02,0.0544531
4.6760e-02,0.055
4.6792e-02,0.0534375
4.6824e-02,0.0514844
4.6856e-02,0.0550781
4.6888e-02,0.0541406
4.6920e-02,0.0542969
4.6952e-02,0.0508594
4.6984e-02,0.0502344
4.7016e-02,0.0516406
4.7048e-02,0.05
4.7080e-02,0.0524219
4.7112e-02,0.0508594
4.7144e-02,0.0503125
4.7176e-02,0.0507031
4.7208e-02,0.0495313
4.7240e-02,0.0503906
4.7272e-02,0.0533594
4.7304e-02,0.05125
4.7336e-02,0.051875
4.7368e-02,0.0507031
4.7400e-02,0.05125
4.7432e-02,0.0517188
4.7464e-02,0.0516406
4.7496e-02,0.0505469
4.7528e-02,0.055
4.7560e-02,0.0578906
4.7592e-02,0.0589844
4.7624e-02,0.0571094
4.7656e-02,0.0567969
4.7688e-02,0.056875
4.7720e-02,0.0553125
4.7752e-02,0.0600781
4.7784e-02,0.0625
4.7816e-02,0.0608594
4.7848e-02,0.0625
4.7880e-02,0.06
4.7912e-02,0.0584375
4.7944e-02,0.0549219
4.7976e-02,0.055
4.8008e-02,0.0589844
4.8040e-02,0.058125
4.8072e-02,0.0570312
4.8104e-02,0.0564844
4.8136e-02,0.0560938
4.8168e-02,0.0528125
4.8200e-02,0.0522656
4.8232e-02,0.0547656
4.8264e-02,0.0522656
4.8296e-02,0.05
4.8328e-02,0.0503906
4.8360e-02,0.0539844
4.8392e-02,0.0550781
4.8424e-02,0.0596875
4.8456e-02,0.0546094
4.8488e-02,0.0525
4.8520e-02,0.0519531
4.8552e-02,0.0546875
4.8584e-02,0.0564844
4.8616e-02,0.0573438
4.8648e-02,0.055
4.8680e-02,0.054375
4.8712e-02,0.0558594
4.8744e-02,0.0548437
4.8776e-02,0.0575781
4.8808e-02,0.0574219
4.8840e-02,0.0592969
4.8872e-02,0.0532812
4.8904e-02,0.0520312
4.8936e-02,0.0542187
4.8968e-02,0.0546094
4.9000e-02,0.05375
4.9032e-02,0.0589844
4.9064e-02,0.0553906
4.9096e-02,0.0560938
4.9128e-02,0.0564062
4.9160e-02,0.0592969
4.9192e-02,0.0615625
4.9224e-02,0.0597656
4.9256e-02,0.0611719
4.9288e-02,0.0633594
4.9320e-02,0.0641406
4.9352e-02,0.0679687
4.9384e-02,0.0646094
4.9416e-02,0.0661719
4.9448e-02,0.0677344
4.9480e-02,0.0695313
4.9512e-02,0.0691406
4.9544e-02,0.0689062
4.9576e-02,0.0686719
4.9608e-02,0.07
4.9640e-02,0.0705469
4.9672e-02,0.0666406
4.9704e-02,0.0691406
4.9736e-02,0.0682031
4.9768e-02,0.0696875
4.9800e-02,0.0701562
4.9832e-02,0.0688281
4.9864e-02,0.0703906
4.9896e-02,0.0701562
4.9928e-02,0.0696094
4.9960e-02,0.0678906
4.9992e-02,0.0696875
5.0024e-02,0.0685938
5.0056e-02,0.0652344
5.0088e-02,0.0697656
5.0120e-02,0.0676562
5.0152e-02,0.0660156
5.0184e-02,0.0666406
5.0216e-02,0.0697656
5.0248e-02,0.0685156
5.0280e-02,0.0694531
5.0312e-02,0.0696875
5.0344e-02,0.0697656
5.0376e-02,0.0688281
5.0408e-02,0.0692969
5.0440e-02,0.0695313
5.0472e-02,0.0698437
5.0504e-02,0.0700781
5.0536e-02,0.0702344
5.0568e-02,0.0715625
5.0600e-02,0.07
5.0632e-02,0.0705469
5.0664e-02,0.0767187
5.0696e-02,0.0801562
5.0728e-02,0.0815625
5.0760e-02,0.0800781
5.0792e-02,0.0758594
5.0824e-02,0.0732812
5.0856e-02,0.0807031
5.0888e-02,0.0835937
5.0920e-02,0.0853125
5.0952e-02,0.0877344
5.0984e-02,0.090625
5.1016e-02,0.0910156
5.1048e-02,0.0905469
5.1080e-02,0.0942969
5.1112e-02,0.100078
5.1144e-02,0.109375
5.1176e-02,0.110156
5.1208e-02,0.110313
5.1240e-02,0.118359
5.1272e-02,0.130234
5.1304e-02,0.143594
5.1336e-02,0.145156
5.1368e-02,0.161406
5.1400e-02,0.173906
5.1432e-02,0.189844
5.1464e-02,0.201797
5.1496e-02,0.213516
5.1528e-02,0.221641
5.1560e-02,0.23375
5.1592e-02,0.251797
5.1624e-02,0.263125
5.1656e-02,0.275234
5.1688e-02,0.290156
5.1720e-02,0.300234
5.1752e-02,0.304609
5.1784e-02,0.307422
5.1816e-02,0.300234
5.1848e-02,0.303984
5.1880e-02,0.310234
5.1912e-02,0.308281
5.1944e-02,0.307422
5.1976e-02,0.304297
5.2008e-02,0.309922
5.2040e-02,0.304297
5.2072e-02,0.299141
5.2104e-02,0.289531
5.2136e-02,0.291016
5.2168e-02,0.287109
5.2200e-02,0.275313
5.2232e-02,0.269297
5.2264e-02,0.263984
5.2296e-02,0.248359
5.2328e-02,0.239922
5.2360e-02,0.240234
5.2392e-02,0.235703
5.2424e-02,0.227891
5.2456e-02,0.224141
5.2488e-02,0.219297
5.2520e-02,0.218125
5.2552e-02,0.222969
5.2584e-02,0.225313
5.2616e-02,0.23125
5.2648e-02,0.238594
5.2680e-02,0.250859
5.2712e-02,0.268125
5.2744e-02,0.272188
5.2776e-02,0.288437
5.2808e-02,0.311094
5.2840e-02,0.334453
5.2872e-02,0.357578
5.2904e-02,0.38
5.2936e-02,0.422578
5.2968e-02,0.462109
5.3000e-02,0.509141
5.3032e-02,0.552656
5.3064e-02,0.605938
5.3096e-02,0.652734
5.3128e-02,0.704609
5.3160e-02,0.772578
5.3192e-02,0.827266
5.3224e-02,0.876406
5.3256e-02,0.933281
5.3288e-02,0.992734
5.3320e-02,1.06289
5.3352e-02,1.10008
5.3384e-02,1.14289
5.3416e-02,1.16211
5.3448e-02,1.19781
5.3480e-02,1.21977
5.3512e-02,1.26102
5.3544e-02,1.29227
5.3576e-02,1.30898
5.3608e-02,1.2843
5.3640e-02,1.26242
5.3672e-02,1.23609
5.3704e-02,1.24516
5.3736e-02,1.2507
5.3768e-02,1.23523
5.3800e-02,1.17734
5.3832e-02,1.15367
5.3864e-02,1.12133
5.3896e-02,1.06539
5.3928e-02,1.03406
5.3960e-02,0.984844
5.3992e-02,0.942344
5.4024e-02,0.898281
5.4056e-02,0.847344
5.4088e-02,0.801406
5.4120e-02,0.766328
5.4152e-02,0.711016
5.4184e-02,0.677969
5.4216e-02,0.656797
5.4248e-02,0.633281
5.4280e-02,0.623047
5.4312e-02,0.614766
5.4344e-02,0.611797
5.4376e-02,0.609687
5.4408e-02,0.606484
5.4440e-02,0.622031
5.4472e-02,0.631172
5.4504e-02,0.620234
5.4536e-02,0.628359
5.4568e-02,0.649062
5.4600e-02,0.659219
5.4632e-02,0.665938
5.4664e-02,0.674766
5.4696e-02,0.688594
5.4728e-02,0.710547
5.4760e-02,0.751328
5.4792e-02,0.781016
5.4824e-02,0.823828
5.4856e-02,0.886797
5.4888e-02,0.933437
5.4920e-02,0.999297
5.4952e-02,1.06641
5.4984e-02,1.12406
5.5016e-02,1.20766
5.5048e-02,1.25906
5.5080e-02,1.34656
5.5112e-02,1.43523
5.5144e-02,1.50211
5.5176e-02,1.56305
5.5208e-02,1.62609
5.5240e-02,1.7032
5.5272e-02,1.7675
5.5304e-02,1.81133
5.5336e-02,1.85906
5.5368e-02,1.8925
5.5400e-02,1.92648
5.5432e-02,1.92055
5.5464e-02,1.93117
5.5496e-02,1.95586
5.5528e-02,1.95656
5.5560e-02,1.93344
5.5592e-02,1.88195
5.5624e-02,1.83953
5.5656e-02,1.78984
5.5688e-02,1.75883
5.5720e-02,1.71063
5.5752e-02,1.64633
5.5784e-02,1.56539
5.5816e-02,1.50484
5.5848e-02,1.43602
5.5880e-02,1.33445
5.5912e-02,1.24227
5.5944e-02,1.16664
5.5976e-02,1.07742
5.6008e-02,0.979922
5.6040e-02,0.895859
5.6072e-02,0.825469
5.6104e-02,0.769375
5.6136e-02,0.722734
5.6168e-02,0.662422
5.6200e-02,0.61875
5.6232e-02,0.581094
5.6264e-02,0.539062
5.6296e-02,0.5225
5.6328e-02,0.502422
5.6360e-02,0.481641
5.6392e-02,0.461719
5.6424e-02,0.448125
5.6456e-02,0.450859
5.6488e-02,0.444844
5.6520e-02,0.449844
5.6552e-02,0.450547
5.6584e-02,0.464141
5.6616e-02,0.459141
5.6648e-02,0.470078
5.6680e-02,0.493906
5.6712e-02,0.5125
5.6744e-02,0.550781
5.6776e-02,0.573047
5.6808e-02,0.610391
5.6840e-02,0.626094
5.6872e-02,0.668203
5.6904e-02,0.717656
5.6936e-02,0.761406
5.6968e-02,0.813984
5.7000e-02,0.859609
5.7032e-02,0.915938
5.7064e-02,0.9675
5.7096e-02,1.01891
5.7128e-02,1.06023
5.7160e-02,1.09867
5.7192e-02,1.12703
5.7224e-02,1.17805
5.7256e-02,1.18867
5.7288e-02,1.22531
5.7320e-02,1.24359
5.7352e-02,1.25266
5.7384e-02,1.24023
5.7416e-02,1.24242
5.7448e-02,1.24133
5.7480e-02,1.21141
5.7512e-02,1.18703
5.7544e-02,1.16484
5.7576e-02,1.13422
5.7608e-02,1.095
5.7640e-02,1.05023
5.7672e-02,1.01141
5.7704e-02,0.950781
5.7736e-02,0.883984
5.7768e-02,0.827891
5.7800e-02,0.779062
5.7832e-02,0.725156
5.7864e-02,0.668906
5.7896e-02,0.60375
5.7928e-02,0.549609
5.7960e-02,0.502891
5.7992e-02,0.453594
5.8024e-02,0.398984
5.8056e-02,0.35625
5.8088e-02,0.332656
5.8120e-02,0.303516
5.8152e-02,0.276797
5.8184e-02,0.255781
5.8216e-02,0.241953
5.8248e-02,0.228125
5.8280e-02,0.220859
5.8312e-02,0.214687
5.8344e-02,0.208203
5.8376e-02,0.207656
5.8408e-02,0.206875
5.8440e-02,0.208359
5.8472e-02,0.206875
5.8504e-02,0.198906
5.8536e-02,0.190859
5.8568e-02,0.187188
5.8600e-02,0.185625
5.8632e-02,0.187578
5.8664e-02,0.189219
5.8696e-02,0.191719
5.8728e-02,0.192344
5.8760e-02,0.195156
5.8792e-02,0.205391
5.8824e-02,0.208594
5.8856e-02,0.210469
5.8888e-02,0.216953
5.8920e-02,0.232422
5.8952e-02,0.236484
5.8984e-02,0.23875
5.9016e-02,0.242109
5.9048e-02,0.241797
5.9080e-02,0.245469
5.9112e-02,0.248203
5.9144e-02,0.237422
5.9176e-02,0.233047
5.9208e-02,0.231953
5.9240e-02,0.232031
5.9272e-02,0.231719
5.9304e-02,0.230781
5.9336e-02,0.226172
5.9368e-02,0.222422
5.9400e-02,0.215859
5.9432e-02,0.205547
5.9464e-02,0.205781
5.9496e-02,0.196016
5.9528e-02,0.187188
5.9560e-02,0.185625
5.9592e-02,0.171328
5.9624e-02,0.165
5.9656e-02,0.156094
5.9688e-02,0.147031
5.9720e-02,0.131797
5.9752e-02,0.126328
5.9784e-02,0.109609
5.9816e-02,0.0989062
5.9848e-02,0.0960156
5.9880e-02,0.0888281
5.9912e-02,0.0832031
5.9944e-02,0.0800781
5.9976e-02,0.0759375
6.0008e-02,0.0747656
6.0040e-02,0.0717188
6.0072e-02,0.0738281
6.0104e-02,0.0699219
6.0136e-02,0.07
6.0168e-02,0.0695313
6.0200e-02,0.0686719
6.0232e-02,0.0660156
6.0264e-02,0.0666406
6.0296e-02,0.0685156
6.0328e-02,0.0675
6.0360e-02,0.06625
6.0392e-02,0.065
6.0424e-02,0.0633594
6.0456e-02,0.0638281
6.0488e-02,0.0625
6.0520e-02,0.0663281
6.0552e-02,0.0667969
6.0584e-02,0.0664844
6.0616e-02,0.0635937
6.0648e-02,0.07
6.0680e-02,0.0700781
6.0712e-02,0.0691406
6.0744e-02,0.0707031
6.0776e-02,0.0686719
6.0808e-02,0.0702344
6.0840e-02,0.0705469
6.0872e-02,0.0696875
6.0904e-02,0.0695313
6.0936e-02,0.0701562
6.0968e-02,0.0700781
6.1000e-02,0.0690625
6.1032e-02,0.068125
6.1064e-02,0.0671875
6.1096e-02,0.0714062
6.1128e-02,0.0701562
6.1160e-02,0.0694531
6.1192e-02,0.0664062
6.1224e-02,0.0632812
6.1256e-02,0.0688281
6.1288e-02,0.0664062
6.1320e-02,0.0679687
6.1352e-02,0.0660938
6.1384e-02,0.0646094
6.1416e-02,0.0636719
6.1448e-02,0.0614062
6.1480e-02,0.0622656
6.1512e-02,0.0577344
6.1544e-02,0.0610156
6.1576e-02,0.0589062
6.1608e-02,0.0598437
6.1640e-02,0.0570312
6.1672e-02,0.0571875
6.1704e-02,0.0589844
6.1736e-02,0.0557812
6.1768e-02,0.058125
6.1800e-02,0.055625
6.1832e-02,0.0523437
6.1864e-02,0.0550781
6.1896e-02,0.0525
6.1928e-02,0.0533594
6.1960e-02,0.0511719
6.1992e-02,0.0504688
6.2024e-02,0.0524219
6.2056e-02,0.0567187
6.2088e-02,0.0591406
6.2120e-02,0.0594531
6.2152e-02,0.055625
6.2184e-02,0.0521094
6.2216e-02,0.0528906
6.2248e-02,0.0539063
6.2280e-02,0.0535937
6.2312e-02,0.0529688
6.2344e-02,0.0530469
6.2376e-02,0.0591406
6.2408e-02,0.0614062
6.2440e-02,0.0586719
6.2472e-02,0.0608594
6.2504e-02,0.0625781
6.2536e-02,0.0600781
6.2568e-02,0.0635937
6.2600e-02,0.060625
6.2632e-02,0.0588281
6.2664e-02,0.0577344
6.2696e-02,0.05625
6.2728e-02,0.0575781
6.2760e-02,0.0589062
6.2792e-02,0.0592187
6.2824e-02,0.0585938
6.2856e-02,0.0632031
6.2888e-02,0.065625
6.2920e-02,0.0677344
6.2952e-02,0.0647656
6.2984e-02,0.065625
6.3016e-02,0.0638281
6.3048e-02,0.0664844
6.3080e-02,0.0642187
6.3112e-02,0.0621875
6.3144e-02,0.0667969
6.3176e-02,0.0682812
6.3208e-02,0.0702344
6.3240e-02,0.0699219
6.3272e-02,0.0645312
6.3304e-02,0.0625
6.3336e-02,0.0608594
6.3368e-02,0.0596094
6.3400e-02,0.063125
6.3432e-02,0.0632031
6.3464e-02,0.0592187
6.3496e-02,0.0626562
6.3528e-02,0.0615625
6.3560e-02,0.0585156
6.3592e-02,0.0588281
6.3624e-02,0.0603906
6.3656e-02,0.0567187
6.3688e-02,0.0599219
6.3720e-02,0.0592969
6.3752e-02,0.05625
6.3784e-02,0.0561719
6.3816e-02,0.054375
6.3848e-02,0.0516406
6.3880e-02,0.0558594
6.3912e-02,0.0550781
6.3944e-02,0.0535937
6.3976e-02,0.0511719
6.4008e-02,0.0535937
6.4040e-02,0.0552344
6.4072e-02,0.0536719
6.4104e-02,0.0550781
6.4136e-02,0.0535156
6.4168e-02,0.0527344
6.4200e-02,0.0507812
6.4232e-02,0.0510937
6.4264e-02,0.0501562
6.4296e-02,0.0507812
6.4328e-02,0.0575781
6.4360e-02,0.0539063
6.4392e-02,0.0521875
6.4424e-02,0.0557812
6.4456e-02,0.0554687
6.4488e-02,0.0539844
6.4520e-02,0.0507031
6.4552e-02,0.0539063
6.4584e-02,0.0525781
6.4616e-02,0.0499219
6.4648e-02,0.0500781
6.4680e-02,0.0499219
6.4712e-02,0.05
6.4744e-02,0.05
6.4776e-02,0.0505469
6.4808e-02,0.0521875
6.4840e-02,0.0524219
6.4872e-02,0.0513281
6.4904e-02,0.0517969
6.4936e-02,0.0504688
6.4968e-02,0.0510937
6.5000e-02,0.0555469
6.5032e-02,0.05375
6.5064e-02,0.0554687
6.5096e-02,0.0559375
6.5128e-02,0.0553906
6.5160e-02,0.0545312
6.5192e-02,0.0549219
6.5224e-02,0.0580469
6.5256e-02,0.0533594
6.5288e-02,0.0545312
6.5320e-02,0.0523437
6.5352e-02,0.0525
6.5384e-02,0.0564062
6.5416e-02,0.0553125
6.5448e-02,0.0566406
6.5480e-02,0.0529688
6.5512e-02,0.0527344
6.5544e-02,0.0578125
6.5576e-02,0.0550781
6.5608e-02,0.0582031
6.5640e-02,0.0551563
6.5672e-02,0.0522656
6.5704e-02,0.05375
6.5736e-02,0.0557812
6.5768e-02,0.0528906
6.5800e-02,0.0570312
6.5832e-02,0.05625
6.5864e-02,0.0579687
6.5896e-02,0.0571875
6.5928e-02,0.0510937
6.5960e-02,0.0515625
6.5992e-02,0.0534375
6.6024e-02,0.0555469
6.6056e-02,0.0546094
6.6088e-02,0.0555469
6.6120e-02,0.0558594
6.6152e-02,0.0539844
6.6184e-02,0.05125
6.6216e-02,0.0521875
6.6248e-02,0.0530469
6.6280e-02,0.0519531
6.6312e-02,0.0505469
6.6344e-02,0.0545312
6.6376e-02,0.0546094
6.6408e-02,0.0530469
6.6440e-02,0.0528125
6.6472e-02,0.056875
6.6504e-02,0.0530469
6.6536e-02,0.0570312
6.6568e-02,0.0571094
6.6600e-02,0.0571094
6.6632e-02,0.0580469
6.6664e-02,0.0576562
6.6696e-02,0.0582813
6.6728e-02,0.060625
6.6760e-02,0.0592187
6.6792e-02,0.0620312
6.6824e-02,0.0635156
6.6856e-02,0.0635156
6.6888e-02,0.0596875
6.6920e-02,0.0589062
6.6952e-02,0.0672656
6.6984e-02,0.0697656
6.7016e-02,0.0696094
6.7048e-02,0.0698437
6.7080e-02,0.0654687
6.7112e-02,0.0639063
6.7144e-02,0.064375
6.7176e-02,0.0694531
6.7208e-02,0.0684375
6.7240e-02,0.0692187
6.7272e-02,0.0694531
6.7304e-02,0.0698437
6.7336e-02,0.0692187
6.7368e-02,0.0675781
6.7400e-02,0.0672656
6.7432e-02,0.0682031
6.7464e-02,0.0659375
6.7496e-02,0.0689844
6.7528e-02,0.0692187
6.7560e-02,0.0653906
6.7592e-02,0.0691406
6.7624e-02,0.0685938
6.7656e-02,0.068125
6.7688e-02,0.0666406
6.7720e-02,0.0700781
6.7752e-02,0.0702344
6.7784e-02,0.0690625
6.7816e-02,0.0700781
6.7848e-02,0.0646875
6.7880e-02,0.0671875
6.7912e-02,0.0696875
6.7944e-02,0.0685938
6.7976e-02,0.0627344
6.8008e-02,0.0627344
6.8040e-02,0.0650781
6.8072e-02,0.0678125
6.8104e-02,0.0686719
6.8136e-02,0.0704687
6.8168e-02,0.070625
6.8200e-02,0.0702344
6.8232e-02,0.0700781
6.8264e-02,0.0725
6.8296e-02,0.0730469
6.8328e-02,0.0753125
6.8360e-02,0.0755469
6.8392e-02,0.0761719
6.8424e-02,0.0770312
6.8456e-02,0.079375
6.8488e-02,0.0817969
6.8520e-02,0.0838281
6.8552e-02,0.0857031
6.8584e-02,0.0874219
6.8616e-02,0.0897656
6.8648e-02,0.0917188
6.8680e-02,0.0976562
6.8712e-02,0.106406
6.8744e-02,0.110234
6.8776e-02,0.119453
6.8808e-02,0.129766
6.8840e-02,0.134062
6.8872e-02,0.147578
6.8904e-02,0.156406
6.8936e-02,0.172187
6.8968e-02,0.190703
6.9000e-02,0.201172
6.9032e-02,0.216406
6.9064e-02,0.232266
6.9096e-02,0.244297
6.9128e-02,0.260156
6.9160e-02,0.266484
6.9192e-02,0.265781
6.9224e-02,0.271484
6.9256e-02,0.271797
6.9288e-02,0.276641
6.9320e-02,0.280156
6.9352e-02,0.290312
6.9384e-02,0.29
6.9416e-02,0.281953
6.9448e-02,0.289609
6.9480e-02,0.301172
6.9512e-02,0.312422
6.9544e-02,0.307969
6.9576e-02,0.305
6.9608e-02,0.299531
6.9640e-02,0.290312
6.9672e-02,0.289844
6.9704e-02,0.286094
6.9736e-02,0.281641
6.9768e-02,0.276172
6.9800e-02,0.270312
6.9832e-02,0.264844
6.9864e-02,0.250625
6.9896e-02,0.240625
6.9928e-02,0.232656
6.9960e-02,0.229531
6.9992e-02,0.227266
7.0024e-02,0.225078
7.0056e-02,0.229375
7.0088e-02,0.239062
7.0120e-02,0.247891
7.0152e-02,0.266719
7.0184e-02,0.288984
7.0216e-02,0.312578
7.0248e-02,0.3325
7.0280e-02,0.364844
7.0312e-02,0.381016
7.0344e-02,0.423047
7.0376e-02,0.455937
7.0408e-02,0.495313
7.0440e-02,0.539766
7.0472e-02,0.587031
7.0504e-02,0.642891
7.0536e-02,0.697578
7.0568e-02,0.756797
7.0600e-02,0.808672
7.0632e-02,0.853203
7.0664e-02,0.912187
7.0696e-02,0.965703
7.0728e-02,1.01336
7.0760e-02,1.06953
7.0792e-02,1.10805
7.0824e-02,1.12695
7.0856e-02,1.13391
7.0888e-02,1.17148
7.0920e-02,1.17984
7.0952e-02,1.19328
7.0984e-02,1.19156
7.1016e-02,1.18273
7.1048e-02,1.20508
7.1080e-02,1.19109
7.1112e-02,1.18109
7.1144e-02,1.16688
7.1176e-02,1.16336
7.1208e-02,1.1275
7.1240e-02,1.10422
7.1272e-02,1.08055
7.1304e-02,1.04258
7.1336e-02,0.993594
7.1368e-02,0.946328
7.1400e-02,0.900313
7.1432e-02,0.852031
7.1464e-02,0.825625
7.1496e-02,0.7825
7.1528e-02,0.739297
7.1560e-02,0.719297
7.1592e-02,0.705781
7.1624e-02,0.668906
7.1656e-02,0.646172
7.1688e-02,0.638281
7.1720e-02,0.634766
7.1752e-02,0.630234
7.1784e-02,0.628984
7.1816e-02,0.631406
7.1848e-02,0.632656
7.1880e-02,0.641016
7.1912e-02,0.6625
7.1944e-02,0.654766
7.1976e-02,0.674609
7.2008e-02,0.688359
7.2040e-02,0.715391
7.2072e-02,0.733359
7.2104e-02,0.784062
7.2136e-02,0.835156
7.2168e-02,0.884922
7.2200e-02,0.939062
7.2232e-02,1.01969
7.2264e-02,1.09977
7.2296e-02,1.17242
7.2328e-02,1.24422
7.2360e-02,1.32812
7.2392e-02,1.41187
7.2424e-02,1.4825
7.2456e-02,1.54062
7.2488e-02,1.58937
7.2520e-02,1.65156
7.2552e-02,1.70781
7.2584e-02,1.74531
7.2616e-02,1.78047
7.2648e-02,1.79945
7.2680e-02,1.80094
7.2712e-02,1.80648
7.2744e-02,1.80719
7.2776e-02,1.82977
7.2808e-02,1.81797
7.2840e-02,1.82156
7.2872e-02,1.78469
7.2904e-02,1.75141
7.2936e-02,1.74555
7.2968e-02,1.70391
7.3000e-02,1.63977
7.3032e-02,1.58164
7.3064e-02,1.54305
7.3096e-02,1.45406
7.3128e-02,1.39344
7.3160e-02,1.31625
7.3192e-02,1.21953
7.3224e-02,1.11984
7.3256e-02,1.03156
7.3288e-02,0.956406
7.3320e-02,0.897109
7.3352e-02,0.839375
7.3384e-02,0.780234
7.3416e-02,0.703516
7.3448e-02,0.640234
7.3480e-02,0.58875
7.3512e-02,0.550859
7.3544e-02,0.525313
7.3576e-02,0.503516
7.3608e-02,0.488203
7.3640e-02,0.470469
7.3672e-02,0.464453
7.3704e-02,0.469531
7.3736e-02,0.468438
7.3768e-02,0.466172
7.3800e-02,0.484063
7.3832e-02,0.498047
7.3864e-02,0.509141
7.3896e-02,0.52375
7.3928e-02,0.553984
7.3960e-02,0.580703
7.3992e-02,0.606797
7.4024e-02,0.644609
7.4056e-02,0.683125
7.4088e-02,0.723906
7.4120e-02,0.778359
7.4152e-02,0.829453
7.4184e-02,0.891641
7.4216e-02,0.932187
7.4248e-02,0.971406
7.4280e-02,1.01609
7.4312e-02,1.04898
7.4344e-02,1.0707
7.4376e-02,1.10969
7.4408e-02,1.12258
7.4440e-02,1.13875
7.4472e-02,1.14305
7.4504e-02,1.14641
7.4536e-02,1.15234
7.4568e-02,1.16594
7.4600e-02,1.16211
7.4632e-02,1.15906
7.4664e-02,1.13984
7.4696e-02,1.10914
7.4728e-02,1.0843
7.4760e-02,1.05359
7.4792e-02,1.02133
7.4824e-02,0.976016
7.4856e-02,0.926953
7.4888e-02,0.888359
7.4920e-02,0.832969
7.4952e-02,0.785391
7.4984e-02,0.720547
7.5016e-02,0.663203
7.5048e-02,0.611953
7.5080e-02,0.558437
7.5112e-02,0.508906
7.5144e-02,0.453594
7.5176e-02,0.413047
7.5208e-02,0.368906
7.5240e-02,0.330781
7.5272e-02,0.313125
7.5304e-02,0.287109
7.5336e-02,0.266406
7.5368e-02,0.251484
7.5400e-02,0.232578
7.5432e-02,0.211797
7.5464e-02,0.209844
7.5496e-02,0.215078
7.5528e-02,0.209609
7.5560e-02,0.213672
7.5592e-02,0.213359
7.5624e-02,0.207422
7.5656e-02,0.198672
7.5688e-02,0.196719
7.5720e-02,0.189844
7.5752e-02,0.191641
7.5784e-02,0.191016
7.5816e-02,0.190781
7.5848e-02,0.189766
7.5880e-02,0.193516
7.5912e-02,0.197188
7.5944e-02,0.208906
7.5976e-02,0.212266
7.6008e-02,0.216484
7.6040e-02,0.228359
7.6072e-02,0.233047
7.6104e-02,0.242031
7.6136e-02,0.248203
7.6168e-02,0.24125
7.6200e-02,0.229531
7.6232e-02,0.223984
7.6264e-02,0.217656
7.6296e-02,0.219766
7.6328e-02,0.216641
7.6360e-02,0.209922
7.6392e-02,0.207969
7.6424e-02,0.208984
7.6456e-02,0.1975
7.6488e-02,0.192891
7.6520e-02,0.179922
7.6552e-02,0.180937
7.6584e-02,0.178203
7.6616e-02,0.167188
7.6648e-02,0.158047
7.6680e-02,0.15125
7.6712e-02,0.145
7.6744e-02,0.136641
7.6776e-02,0.127109
7.6808e-02,0.116719
7.6840e-02,0.108906
7.6872e-02,0.108906
7.6904e-02,0.0973438
7.6936e-02,0.0896094
7.6968e-02,0.0885156
7.7000e-02,0.0871094
7.7032e-02,0.0796875
7.7064e-02,0.0721094
7.7096e-02,0.0746875
7.7128e-02,0.0714062
7.7160e-02,0.0700781
7.7192e-02,0.0670312
7.7224e-02,0.065
7.7256e-02,0.0658594
7.7288e-02,0.0685938
7.7320e-02,0.0669531
7.7352e-02,0.0658594
7.7384e-02,0.0673438
7.7416e-02,0.0672656
7.7448e-02,0.0702344
7.7480e-02,0.0686719
7.7512e-02,0.0664844
7.7544e-02,0.0657031
7.7576e-02,0.0623437
7.7608e-02,0.0620312
7.7640e-02,0.0624219
7.7672e-02,0.0688281
7.7704e-02,0.070625
7.7736e-02,0.0701562
7.7768e-02,0.0700781
7.7800e-02,0.0682031
7.7832e-02,0.0683594
7.7864e-02,0.0653125
7.7896e-02,0.065
7.7928e-02,0.0676562
7.7960e-02,0.0680469
7.7992e-02,0.0701562
7.8024e-02,0.0699219
7.8056e-02,0.0638281
7.8088e-02,0.0696875
7.8120e-02,0.070625
7.8152e-02,0.0692187
7.8184e-02,0.0672656
7.8216e-02,0.0665625
7.8248e-02,0.0664844
7.8280e-02,0.0640625
7.8312e-02,0.06125
7.8344e-02,0.0644531
7.8376e-02,0.0629688
7.8408e-02,0.060625
7.8440e-02,0.0640625
7.8472e-02,0.0607031
7.8504e-02,0.0589844
7.8536e-02,0.0585938
7.8568e-02,0.0590625
7.8600e-02,0.06125
7.8632e-02,0.05875
7.8664e-02,0.0550781
7.8696e-02,0.0564062
7.8728e-02,0.0569531
7.8760e-02,0.0592187
7.8792e-02,0.0563281
7.8824e-02,0.05625
7.8856e-02,0.0536719
7.8888e-02,0.055625
7.8920e-02,0.0542969
7.8952e-02,0.0538281
7.8984e-02,0.0575
7.9016e-02,0.0571875
7.9048e-02,0.0545312
7.9080e-02,0.0578906
7.9112e-02,0.0532812
7.9144e-02,0.0576562
7.9176e-02,0.0549219
7.9208e-02,0.0550781
7.9240e-02,0.0564844
7.9272e-02,0.0554687
7.9304e-02,0.0578906
7.9336e-02,0.0567969
7.9368e-02,0.05625
7.9400e-02,0.05875
7.9432e-02,0.0600781
7.9464e-02,0.0607031
7.9496e-02,0.0591406
7.9528e-02,0.0585156
7.9560e-02,0.0610156
7.9592e-02,0.0596094
7.9624e-02,0.0614062
7.9656e-02,0.0626562
7.9688e-02,0.0641406
7.9720e-02,0.0675
7.9752e-02,0.0613281
7.9784e-02,0.0632812
7.9816e-02,0.0677344
7.9848e-02,0.06125
7.9880e-02,0.0592187
7.9912e-02,0.05875
7.9944e-02,0.0582031
7.9976e-02,0.0590625
8.0008e-02,0.0597656
8.0040e-02,0.061875
8.0072e-02,0.0575781
8.0104e-02,0.0582031
8.0136e-02,0.0585938
8.0168e-02,0.0578906
8.0200e-02,0.0579687
8.0232e-02,0.0598437
8.0264e-02,0.0601562
8.0296e-02,0.0610156
8.0328e-02,0.0585938
8.0360e-02,0.059375
8.0392e-02,0.0621094
8.0424e-02,0.0596875
8.0456e-02,0.0590625
8.0488e-02,0.0577344
8.0520e-02,0.0559375
8.0552e-02,0.0577344
8.0584e-02,0.0528906
8.0616e-02,0.0516406
8.0648e-02,0.0559375
8.0680e-02,0.0575
8.0712e-02,0.0553125
8.0744e-02,0.0553906
8.0776e-02,0.0552344
8.0808e-02,0.0517188
8.0840e-02,0.0564062
8.0872e-02,0.0551563
8.0904e-02,0.0540625
8.0936e-02,0.0541406
8.0968e-02,0.0525781
8.1000e-02,0.0513281
8.1032e-02,0.0517188
8.1064e-02,0.050625
8.1096e-02,0.0517969
8.1128e-02,0.0510937
8.1160e-02,0.0532031
8.1192e-02,0.051875
8.1224e-02,0.0499219
8.1256e-02,0.05
8.1288e-02,0.0530469
8.1320e-02,0.0517969
8.1352e-02,0.0510937
8.1384e-02,0.0513281
8.1416e-02,0.05125
8.1448e-02,0.0507812
8.1480e-02,0.0533594
8.1512e-02,0.0500781
8.1544e-02,0.0502344
8.1576e-02,0.0521094
8.1608e-02,0.0519531
8.1640e-02,0.0532031
8.1672e-02,0.0524219
8.1704e-02,0.0526562
8.1736e-02,0.0517188
8.1768e-02,0.0564844
8.1800e-02,0.0551563
8.1832e-02,0.0541406
8.1864e-02,0.0507031
8.1896e-02,0.0514844
8.1928e-02,0.05
8.1960e-02,0.0509375
8.1992e-02,0.0541406
8.2024e-02,0.0513281
8.2056e-02,0.054375
8.2088e-02,0.0557812
8.2120e-02,0.0565625
8.2152e-02,0.0580469
8.2184e-02,0.0580469
8.2216e-02,0.0585156
8.2248e-02,0.0591406
8.2280e-02,0.058125
8.2312e-02,0.0559375
8.2344e-02,0.0554687
8.2376e-02,0.0567187
8.2408e-02,0.0588281
8.2440e-02,0.0582813
8.2472e-02,0.0576562
8.2504e-02,0.0571875
8.2536e-02,0.0548437
8.2568e-02,0.0548437
8.2600e-02,0.0540625
8.2632e-02,0.0559375
8.2664e-02,0.0590625
8.2696e-02,0.0579687
8.2728e-02,0.0595313
8.2760e-02,0.0579687
8.2792e-02,0.0594531
8.2824e-02,0.0584375
8.2856e-02,0.0584375
8.2888e-02,0.0596875
8.2920e-02,0.0561719
8.2952e-02,0.0521875
8.2984e-02,0.0563281
8.3016e-02,0.0596875
8.3048e-02,0.05625
8.3080e-02,0.0560938
8.3112e-02,0.0557812
8.3144e-02,0.0575
8.3176e-02,0.0546094
8.3208e-02,0.0553125
8.3240e-02,0.05625
8.3272e-02,0.0554687
8.3304e-02,0.0560156
8.3336e-02,0.0564844
8.3368e-02,0.0542969
8.3400e-02,0.0578906
8.3432e-02,0.0590625
8.3464e-02,0.0596094
8.3496e-02,0.0607813
8.3528e-02,0.0610937
8.3560e-02,0.0642969
8.3592e-02,0.0642969
8.3624e-02,0.0671094
8.3656e-02,0.0667187
8.3688e-02,0.0676562
8.3720e-02,0.0660156
8.3752e-02,0.0671875
8.3784e-02,0.0632031
8.3816e-02,0.0660938
8.3848e-02,0.0648437
8.3880e-02,0.0659375
8.3912e-02,0.0699219
8.3944e-02,0.0697656
8.3976e-02,0.0692969
8.4008e-02,0.0670312
8.4040e-02,0.0696094
8.4072e-02,0.0645312
8.4104e-02,0.0677344
8.4136e-02,0.0675781
8.4168e-02,0.0675
8.4200e-02,0.0692969
8.4232e-02,0.0701562
8.4264e-02,0.0692187
8.4296e-02,0.0675
8.4328e-02,0.0659375
8.4360e-02,0.0667969
8.4392e-02,0.0698437
8.4424e-02,0.0696094
8.4456e-02,0.070625
8.4488e-02,0.0700781
8.4520e-02,0.0700781
8.4552e-02,0.0699219
8.4584e-02,0.0727344
8.4616e-02,0.070625
8.4648e-02,0.0726562
8.4680e-02,0.0721875
8.4712e-02,0.0725
8.4744e-02,0.0727344
8.4776e-02,0.074375
8.4808e-02,0.0723437
8.4840e-02,0.0757031
8.4872e-02,0.0736719
8.4904e-02,0.0767187
8.4936e-02,0.0784375
8.4968e-02,0.0773438
8.5000e-02,0.0774219
8.5032e-02,0.0801562
8.5064e-02,0.0864844
8.5096e-02,0.0902344
8.5128e-02,0.09
8.5160e-02,0.0928125
8.5192e-02,0.09875
8.5224e-02,0.101172
8.5256e-02,0.110625
8.5288e-02,0.120625
8.5320e-02,0.123125
8.5352e-02,0.131094
8.5384e-02,0.143906
8.5416e-02,0.154062
8.5448e-02,0.161484
8.5480e-02,0.173672
8.5512e-02,0.189531
8.5544e-02,0.204531
8.5576e-02,0.220312
8.5608e-02,0.237969
8.5640e-02,0.244063
8.5672e-02,0.251328
8.5704e-02,0.250469
8.5736e-02,0.256094
8.5768e-02,0.263203
8.5800e-02,0.256641
8.5832e-02,0.252969
8.5864e-02,0.259531
8.5896e-02,0.263672
8.5928e-02,0.271328
8.5960e-02,0.269062
8.5992e-02,0.273906
8.6024e-02,0.285312
8.6056e-02,0.290469
8.6088e-02,0.292344
8.6120e-02,0.289766
8.6152e-02,0.291875
8.6184e-02,0.284219
8.6216e-02,0.279922
8.6248e-02,0.284922
8.6280e-02,0.2725
8.6312e-02,0.267422
8.6344e-02,0.266016
8.6376e-02,0.258594
8.6408e-02,0.251016
8.6440e-02,0.250703
8.6472e-02,0.248203
8.6504e-02,0.251172
8.6536e-02,0.24875
8.6568e-02,0.247344
8.6600e-02,0.255391
8.6632e-02,0.269687
8.6664e-02,0.283516
8.6696e-02,0.295469
8.6728e-02,0.3175
8.6760e-02,0.346797
8.6792e-02,0.375781
8.6824e-02,0.407891
8.6856e-02,0.437578
8.6888e-02,0.484687
8.6920e-02,0.525703
8.6952e-02,0.574453
8.6984e-02,0.635234
8.7016e-02,0.686641
8.7048e-02,0.748672
8.7080e-02,0.789687
8.7112e-02,0.846953
8.7144e-02,0.885312
8.7176e-02,0.929922
8.7208e-02,0.959141
8.7240e-02,1.00281
8.7272e-02,1.04914
8.7304e-02,1.07883
8.7336e-02,1.095
8.7368e-02,1.12164
8.7400e-02,1.13328
8.7432e-02,1.15891
8.7464e-02,1.15297
8.7496e-02,1.13477
8.7528e-02,1.14031
8.7560e-02,1.12398
8.7592e-02,1.12156
8.7624e-02,1.11453
8.7656e-02,1.11008
8.7688e-02,1.09883
8.7720e-02,1.08609
8.7752e-02,1.06867
8.7784e-02,1.0368
8.7816e-02,1.00148
8.7848e-02,0.952344
8.7880e-02,0.894688
8.7912e-02,0.867812
8.7944e-02,0.822812
8.7976e-02,0.792812
8.8008e-02,0.763984
8.8040e-02,0.730781
8.8072e-02,0.709219
8.8104e-02,0.692813
8.8136e-02,0.671641
8.8168e-02,0.674375
8.8200e-02,0.665938
8.8232e-02,0.657109
8.8264e-02,0.663281
8.8296e-02,0.657031
8.8328e-02,0.667266
8.8360e-02,0.675859
8.8392e-02,0.676797
8.8424e-02,0.703125
8.8456e-02,0.735
8.8488e-02,0.759297
8.8520e-02,0.781016
8.8552e-02,0.831953
8.8584e-02,0.898281
8.8616e-02,0.9575
8.8648e-02,1.03523
8.8680e-02,1.1057
8.8712e-02,1.16961
8.8744e-02,1.24328
8.8776e-02,1.31023
8.8808e-02,1.37758
8.8840e-02,1.43945
8.8872e-02,1.51391
8.8904e-02,1.58336
8.8936e-02,1.62875
8.8968e-02,1.65547
8.9000e-02,1.67297
8.9032e-02,1.68594
8.9064e-02,1.72984
8.9096e-02,1.74156
8.9128e-02,1.74687
8.9160e-02,1.73945
8.9192e-02,1.7318
8.9224e-02,1.71625
8.9256e-02,1.69703
8.9288e-02,1.65938
8.9320e-02,1.65187
8.9352e-02,1.64422
8.9384e-02,1.60742
8.9416e-02,1.55578
8.9448e-02,1.51914
8.9480e-02,1.4725
8.9512e-02,1.42305
8.9544e-02,1.34625
8.9576e-02,1.28094
8.9608e-02,1.19766
8.9640e-02,1.11875
8.9672e-02,1.05711
8.9704e-02,0.980312
8.9736e-02,0.901172
8.9768e-02,0.828203
8.9800e-02,0.758906
8.9832e-02,0.703359
8.9864e-02,0.653828
8.9896e-02,0.60375
8.9928e-02,0.561641
8.9960e-02,0.537031
8.9992e-02,0.505781
9.0024e-02,0.498828
9.0056e-02,0.489922
9.0088e-02,0.489531
9.0120e-02,0.493516
9.0152e-02,0.505781
9.0184e-02,0.501094
9.0216e-02,0.514609
9.0248e-02,0.536484
9.0280e-02,0.553906
9.0312e-02,0.594688
9.0344e-02,0.639219
9.0376e-02,0.666953
9.0408e-02,0.697969
9.0440e-02,0.730859
9.0472e-02,0.778437
9.0504e-02,0.832031
9.0536e-02,0.864922
9.0568e-02,0.918516
9.0600e-02,0.954531
9.0632e-02,0.991875
9.0664e-02,1.02
9.0696e-02,1.04852
9.0728e-02,1.04703
9.0760e-02,1.05352
9.0792e-02,1.0732
9.0824e-02,1.07914
9.0856e-02,1.09516
9.0888e-02,1.10031
9.0920e-02,1.10977
9.0952e-02,1.09141
9.0984e-02,1.07273
9.1016e-02,1.06352
9.1048e-02,1.03133
9.1080e-02,1.02953
9.1112e-02,1.01375
9.1144e-02,0.993516
9.1176e-02,0.962656
9.1208e-02,0.926484
9.1240e-02,0.884062
9.1272e-02,0.827109
9.1304e-02,0.775234
9.1336e-02,0.722578
9.1368e-02,0.677109
9.1400e-02,0.62875
9.1432e-02,0.567109
9.1464e-02,0.509297
9.1496e-02,0.456562
9.1528e-02,0.408438
9.1560e-02,0.370469
9.1592e-02,0.345859
9.1624e-02,0.317813
9.1656e-02,0.292891
9.1688e-02,0.269297
9.1720e-02,0.250156
9.1752e-02,0.235703
9.1784e-02,0.222656
9.1816e-02,0.213281
9.1848e-02,0.209688
9.1880e-02,0.210391
9.1912e-02,0.202187
9.1944e-02,0.197266
9.1976e-02,0.195078
9.2008e-02,0.193437
9.2040e-02,0.194766
9.2072e-02,0.193672
9.2104e-02,0.193437
9.2136e-02,0.204297
9.2168e-02,0.205313
9.2200e-02,0.208438
9.2232e-02,0.210703
9.2264e-02,0.216641
9.2296e-02,0.223437
9.2328e-02,0.229141
9.2360e-02,0.228203
9.2392e-02,0.229688
9.2424e-02,0.231406
9.2456e-02,0.232734
9.2488e-02,0.228438
9.2520e-02,0.222422
9.2552e-02,0.2225
9.2584e-02,0.214141
9.2616e-02,0.214922
9.2648e-02,0.209844
9.2680e-02,0.210625
9.2712e-02,0.204063
9.2744e-02,0.201562
9.2776e-02,0.190391
9.2808e-02,0.189609
9.2840e-02,0.184141
9.2872e-02,0.176094
9.2904e-02,0.168594
9.2936e-02,0.164062
9.2968e-02,0.148359
9.3000e-02,0.140859
9.3032e-02,0.140391
9.3064e-02,0.130078
9.3096e-02,0.128281
9.3128e-02,0.116875
9.3160e-02,0.109531
9.3192e-02,0.106094
9.3224e-02,0.0930469
9.3256e-02,0.09
9.3288e-02,0.0839063
9.3320e-02,0.0757031
9.3352e-02,0.0708594
9.3384e-02,0.0697656
9.3416e-02,0.0708594
9.3448e-02,0.0720312
9.3480e-02,0.0699219
9.3512e-02,0.0700781
9.3544e-02,0.0702344
9.3576e-02,0.069375
9.3608e-02,0.0684375
9.3640e-02,0.0692969
9.3672e-02,0.0680469
9.3704e-02,0.0699219
9.3736e-02,0.070625
9.3768e-02,0.0696875
9.3800e-02,0.0676562
9.3832e-02,0.0642187
9.3864e-02,0.0667187
9.3896e-02,0.0671875
9.3928e-02,0.0651563
9.3960e-02,0.06875
9.3992e-02,0.0666406
9.4024e-02,0.0653906
9.4056e-02,0.0610156
9.4088e-02,0.0639844
9.4120e-02,0.065
9.4152e-02,0.0646875
9.4184e-02,0.0653125
9.4216e-02,0.0664844
9.4248e-02,0.0682812
9.4280e-02,0.0699219
9.4312e-02,0.0670312
9.4344e-02,0.0649219
9.4376e-02,0.0653906
9.4408e-02,0.063125
9.4440e-02,0.0621875
9.4472e-02,0.0627344
9.4504e-02,0.0642187
9.4536e-02,0.0653906
9.4568e-02,0.0678906
9.4600e-02,0.0677344
9.4632e-02,0.0655469
9.4664e-02,0.0592187
9.4696e-02,0.0622656
9.4728e-02,0.069375
9.4760e-02,0.0675781
9.4792e-02,0.0617969
9.4824e-02,0.0592187
9.4856e-02,0.0580469
9.4888e-02,0.06
9.4920e-02,0.0585156
9.4952e-02,0.0610156
9.4984e-02,0.0576562
9.5016e-02,0.0540625
9.5048e-02,0.0596094
9.5080e-02,0.0589844
9.5112e-02,0.058125
9.5144e-02,0.05875
9.5176e-02,0.0585156
9.5208e-02,0.0553906
9.5240e-02,0.0513281
9.5272e-02,0.0511719
9.5304e-02,0.0532812
9.5336e-02,0.0560156
9.5368e-02,0.0570312
9.5400e-02,0.056875
9.5432e-02,0.0535156
9.5464e-02,0.05875
9.5496e-02,0.0590625
9.5528e-02,0.0549219
9.5560e-02,0.0596875
9.5592e-02,0.0585156
9.5624e-02,0.0599219
9.5656e-02,0.0603906
9.5688e-02,0.0585938
9.5720e-02,0.0595313
9.5752e-02,0.059375
9.5784e-02,0.0614062
9.5816e-02,0.0603125
9.5848e-02,0.0614062
9.5880e-02,0.0625
9.5912e-02,0.0597656
9.5944e-02,0.0589062
9.5976e-02,0.0625781
9.6008e-02,0.0630469
9.6040e-02,0.060625
9.6072e-02,0.0623437
9.6104e-02,0.064375
9.6136e-02,0.0655469
9.6168e-02,0.0640625
9.6200e-02,0.060625
9.6232e-02,0.0594531
9.6264e-02,0.0629688
9.6296e-02,0.0596875
9.6328e-02,0.0626562
9.6360e-02,0.0607813
9.6392e-02,0.0611719
9.6424e-02,0.0610156
9.6456e-02,0.0619531
9.6488e-02,0.0627344
9.6520e-02,0.0591406
9.6552e-02,0.0559375
9.6584e-02,0.0576562
9.6616e-02,0.0561719
9.6648e-02,0.05625
9.6680e-02,0.0583594
9.6712e-02,0.0554687
9.6744e-02,0.0577344
9.6776e-02,0.0589844
9.6808e-02,0.0571875
9.6840e-02,0.05625
9.6872e-02,0.0561719
9.6904e-02,0.0566406
9.6936e-02,0.0538281
9.6968e-02,0.0542187
9.7000e-02,0.0544531
9.7032e-02,0.0539063
9.7064e-02,0.0521094
9.7096e-02,0.0525781
9.7128e-02,0.0532812
9.7160e-02,0.0540625
9.7192e-02,0.0521875
9.7224e-02,0.054375
9.7256e-02,0.0560938
9.7288e-02,0.0539063
9.7320e-02,0.0536719
9.7352e-02,0.0507031
9.7384e-02,0.0499219
9.7416e-02,0.05
9.7448e-02,0.0501562
9.7480e-02,0.05125
9.7512e-02,0.0504688
9.7544e-02,0.0516406
9.7576e-02,0.0514062
9.7608e-02,0.0499219
9.7640e-02,0.0509375
9.7672e-02,0.0499219
9.7704e-02,0.05
9.7736e-02,0.0526562
9.7768e-02,0.0505469
9.7800e-02,0.0516406
9.7832e-02,0.0510156
9.7864e-02,0.0503906
9.7896e-02,0.0500781
9.7928e-02,0.0510937
9.7960e-02,0.050625
9.7992e-02,0.0502344
9.8024e-02,0.05
9.8056e-02,0.0532812
9.8088e-02,0.0547656
9.8120e-02,0.0577344
9.8152e-02,0.0560938
9.8184e-02,0.05
9.8216e-02,0.0555469
9.8248e-02,0.0549219
9.8280e-02,0.0525781
9.8312e-02,0.053125
9.8344e-02,0.0523437
9.8376e-02,0.0533594
9.8408e-02,0.0525
9.8440e-02,0.0569531
9.8472e-02,0.0544531
9.8504e-02,0.0545312
9.8536e-02,0.0572656
9.8568e-02,0.0555469
9.8600e-02,0.0551563
9.8632e-02,0.0523437
9.8664e-02,0.0542187
9.8696e-02,0.0576562
9.8728e-02,0.0597656
9.8760e-02,0.0582813
9.8792e-02,0.0539844
9.8824e-02,0.0533594
9.8856e-02,0.0529688
9.8888e-02,0.0510937
9.8920e-02,0.0530469
9.8952e-02,0.0564062
9.8984e-02,0.0554687
9.9016e-02,0.0535156
9.9048e-02,0.0560156
9.9080e-02,0.0514844
9.9112e-02,0.0522656
9.9144e-02,0.0544531
9.9176e-02,0.0557031
9.9208e-02,0.0563281
9.9240e-02,0.055625
9.9272e-02,0.0539063
9.9304e-02,0.0519531
9.9336e-02,0.0541406
9.9368e-02,0.0544531
9.9400e-02,0.0563281
9.9432e-02,0.0502344
9.9464e-02,0.0547656
9.9496e-02,0.0578125
9.9528e-02,0.0601562
9.9560e-02,0.0621875
9.9592e-02,0.0620312
9.9624e-02,0.0616406
9.9656e-02,0.0615625
9.9688e-02,0.0620312
9.9720e-02,0.0590625
9.9752e-02,0.0604687
9.9784e-02,0.0639844
9.9816e-02,0.0666406
9.9848e-02,0.0665625
9.9880e-02,0.0678125
9.9912e-02,0.0672656
9.9944e-02,0.0690625
9.9976e-02,0.0709375
1.0001e-01,0.07
1.0004e-01,0.0682812
1.0007e-01,0.0648437
1.0010e-01,0.0682031
1.0014e-01,0.0703906
1.0017e-01,0.0682031
1.0020e-01,0.0675
1.0023e-01,0.0636719
1.0026e-01,0.0652344
1.0030e-01,0.0650781
1.0033e-01,0.0677344
1.0036e-01,0.0700781
1.0039e-01,0.0721094
1.0042e-01,0.0725
1.0046e-01,0.0700781
1.0049e-01,0.07
1.0052e-01,0.0696094
1.0055e-01,0.0694531
1.0058e-01,0.0698437
1.0062e-01,0.0683594
1.0065e-01,0.0683594
1.0068e-01,0.0700781
1.0071e-01,0.07125
1.0074e-01,0.0704687
1.0078e-01,0.069375
1.0081e-01,0.0714062
1.0084e-01,0.0707813
1.0087e-01,0.0711719
1.0090e-01,0.0723437
1.0094e-01,0.0704687
1.0097e-01,0.0748437
1.0100e-01,0.07
1.0103e-01,0.0708594
1.0106e-01,0.0785938
1.0110e-01,0.0753125
1.0113e-01,0.0785938
1.0116e-01,0.0785938
1.0119e-01,0.084375
1.0122e-01,0.0847656
1.0126e-01,0.0915625
1.0129e-01,0.0953906
1.0132e-01,0.101406
1.0135e-01,0.101406
1.0138e-01,0.106016
1.0142e-01,0.115938
1.0145e-01,0.128828
1.0148e-01,0.133359
1.0151e-01,0.138359
1.0154e-01,0.151719
1.0158e-01,0.161484
1.0161e-01,0.172422
1.0164e-01,0.185312
1.0167e-01,0.199375
1.0170e-01,0.209453
1.0174e-01,0.223984
1.0177e-01,0.240391
1.0180e-01,0.24625
1.0183e-01,0.249922
1.0186e-01,0.250469
1.0190e-01,0.256016
1.0193e-01,0.264687
1.0196e-01,0.262188
1.0199e-01,0.256484
1.0202e-01,0.258359
1.0206e-01,0.263359
1.0209e-01,0.270547
1.0212e-01,0.272969
1.0215e-01,0.278906
1.0218e-01,0.275859
1.0222e-01,0.282188
1.0225e-01,0.294453
1.0228e-01,0.290078
1.0231e-01,0.282031
1.0234e-01,0.282188
1.0238e-01,0.281641
1.0241e-01,0.271875
1.0244e-01,0.278359
1.0247e-01,0.268359
1.0250e-01,0.251484
1.0254e-01,0.252578
1.0257e-01,0.262109
1.0260e-01,0.263906
1.0263e-01,0.259141
1.0266e-01,0.256172
1.0270e-01,0.260547
1.0273e-01,0.278359
1.0276e-01,0.284219
1.0279e-01,0.293281
1.0282e-01,0.308047
1.0286e-01,0.330625
1.0289e-01,0.357187
1.0292e-01,0.381641
1.0295e-01,0.423125
1.0298e-01,0.466094
1.0302e-01,0.506094
1.0305e-01,0.540625
1.0308e-01,0.582891
1.0311e-01,0.628906
1.0314e-01,0.692031
1.0318e-01,0.734922
1.0321e-01,0.799219
1.0324e-01,0.834922
1.0327e-01,0.856094
1.0330e-01,0.900547
1.0334e-01,0.933047
1.0337e-01,0.958906
1.0340e-01,0.9825
1.0343e-01,1.00836
1.0346e-01,1.04984
1.0350e-01,1.07016
1.0353e-01,1.08336
1.0356e-01,1.08961
1.0359e-01,1.08578
1.0362e-01,1.09297
1.0366e-01,1.10102
1.0369e-01,1.1
1.0372e-01,1.11
1.0375e-01,1.11055
1.0378e-01,1.12195
1.0382e-01,1.10187
1.0385e-01,1.08859
1.0388e-01,1.06977
1.0391e-01,1.04859
1.0394e-01,1.00977
1.0398e-01,0.976562
1.0401e-01,0.947969
1.0404e-01,0.92
1.0407e-01,0.888828
1.0410e-01,0.861094
1.0414e-01,0.822734
1.0417e-01,0.783828
1.0420e-01,0.752578
1.0423e-01,0.749375
1.0426e-01,0.729141
1.0430e-01,0.707031
1.0433e-01,0.69375
1.0436e-01,0.69125
1.0439e-01,0.672578
1.0442e-01,0.682344
1.0446e-01,0.687969
1.0449e-01,0.688438
1.0452e-01,0.695859
1.0455e-01,0.708828
1.0458e-01,0.734219
1.0462e-01,0.756875
1.0465e-01,0.797422
1.0468e-01,0.847422
1.0471e-01,0.889766
1.0474e-01,0.947109
1.0478e-01,1.01172
1.0481e-01,1.06867
1.0484e-01,1.11719
1.0487e-01,1.16008
1.0490e-01,1.20883
1.0494e-01,1.24523
1.0497e-01,1.27898
1.0500e-01,1.31438
1.0503e-01,1.34836
1.0506e-01,1.35562
1.0510e-01,1.36305
1.0513e-01,1.38453
1.0516e-01,1.37164
1.0519e-01,1.36898
1.0522e-01,1.3475
1.0526e-01,1.33312
1.0529e-01,1.32641
1.0532e-01,1.29453
1.0535e-01,1.26742
1.0538e-01,1.23891
1.0542e-01,1.20461
1.0545e-01,1.17008
1.0548e-01,1.12539
1.0551e-01,1.06852
1.0554e-01,1.01164
1.0558e-01,0.955
1.0561e-01,0.919219
1.0564e-01,0.874219
1.0567e-01,0.823594
1.0570e-01,0.791016
1.0574e-01,0.755547
1.0577e-01,0.728984
1.0580e-01,0.710469
1.0583e-01,0.705391
1.0586e-01,0.700156
1.0590e-01,0.710078
1.0593e-01,0.732812
1.0596e-01,0.770234
1.0599e-01,0.823594
1.0602e-01,0.888828
1.0606e-01,0.935156
1.0609e-01,0.984687
1.0612e-01,1.02055
1.0615e-01,1.0643
1.0618e-01,1.08156
1.0622e-01,1.07492
1.0625e-01,1.08203
1.0628e-01,1.04266
1.0631e-01,0.978906
1.0634e-01,0.92875
1.0638e-01,0.834453
1.0641e-01,0.764766
1.0644e-01,0.676094
1.0647e-01,0.595703
1.0650e-01,0.515078
1.0654e-01,0.454297
1.0657e-01,0.404375
1.0660e-01,0.363359
1.0663e-01,0.350234
1.0666e-01,0.335938
1.0670e-01,0.327891
1.0673e-01,0.322656
1.0676e-01,0.304844
1.0679e-01,0.287734
1.0682e-01,0.268359
1.0686e-01,0.252969
1.0689e-01,0.238047
1.0692e-01,0.210625
1.0695e-01,0.192109
1.0698e-01,0.169922
1.0702e-01,0.144687
1.0705e-01,0.124922
1.0708e-01,0.106797
1.0711e-01,0.0967187
1.0714e-01,0.0883594
1.0718e-01,0.0840625
1.0721e-01,0.0810156


