Model,MSO2024
Firmware Version,1.52

Point Format,Y
Horizontal Units,S
Horizontal Scale,0.01
Sample Interval,3.2e-05
Filter Frequency,2e+08
Record Length,3125
Gating,0.0% to 100.0%
Probe Attenuation,1
Vertical Units,V
Vertical Offset,0
Vertical Scale,1
Label,
TIME,CH1
7.2400e-03,1.04656
7.2720e-03,1.055
7.3040e-03,1.05203
7.3360e-03,1.06953
7.3680e-03,1.07141
7.4000e-03,1.08781
7.4320e-03,1.08672
7.4640e-03,1.10266
7.4960e-03,1.10438
7.5280e-03,1.09266
7.5600e-03,1.09031
7.5920e-03,1.09875
7.6240e-03,1.08562
7.6560e-03,1.0825
7.6880e-03,1.08094
7.7200e-03,1.0775
7.7520e-03,1.07828
7.7840e-03,1.07656
7.8160e-03,1.09016
7.8480e-03,1.08328
7.8800e-03,1.07437
7.9120e-03,1.05891
7.9440e-03,1.05313
7.9760e-03,1.05
8.0080e-03,1.05516
8.0400e-03,1.0525
8.0720e-03,1.04469
8.1040e-03,1.04125
8.1360e-03,1.03313
8.1680e-03,1.01484
8.2000e-03,1.01266
8.2320e-03,1.00719
8.2640e-03,0.990937
8.2960e-03,0.989844
8.3280e-03,0.9925
8.3600e-03,0.974375
8.3920e-03,0.953437
8.4240e-03,0.934375
8.4560e-03,0.922813
8.4880e-03,0.8975
8.5200e-03,0.893438
8.5520e-03,0.875312
8.5840e-03,0.871094
8.6160e-03,0.855781
8.6480e-03,0.847812
8.6800e-03,0.812187
8.7120e-03,0.811875
8.7440e-03,0.807344
8.7760e-03,0.789844
8.8080e-03,0.779688
8.8400e-03,0.772969
8.8720e-03,0.755625
8.9040e-03,0.747344
8.9360e-03,0.735625
8.9680e-03,0.718437
9.0000e-03,0.714531
9.0320e-03,0.7
9.0640e-03,0.691094
9.0960e-03,0.680469
9.1280e-03,0.670156
9.1600e-03,0.655
9.1920e-03,0.653281
9.2240e-03,0.655156
9.2560e-03,0.645625
9.2880e-03,0.639063
9.3200e-03,0.621563
9.3520e-03,0.62
9.3840e-03,0.609687
9.4160e-03,0.607656
9.4480e-03,0.613125
9.4800e-03,0.614062
9.5120e-03,0.594531
9.5440e-03,0.585469
9.5760e-03,0.582344
9.6080e-03,0.582344
9.6400e-03,0.579219
9.6720e-03,0.577187
9.7040e-03,0.5825
9.7360e-03,0.576719
9.7680e-03,0.571094
9.8000e-03,0.559219
9.8320e-03,0.553594
9.8640e-03,0.538438
9.8960e-03,0.540469
9.9280e-03,0.538906
9.9600e-03,0.539062
9.9920e-03,0.534219
1.0024e-02,0.534531
1.0056e-02,0.538125
1.0088e-02,0.523438
1.0120e-02,0.530469
1.0152e-02,0.514844
1.0184e-02,0.508125
1.0216e-02,0.508437
1.0248e-02,0.511406
1.0280e-02,0.519219
1.0312e-02,0.525625
1.0344e-02,0.532812
1.0376e-02,0.542031
1.0408e-02,0.549062
1.0440e-02,0.556094
1.0472e-02,0.564219
1.0504e-02,0.573906
1.0536e-02,0.572969
1.0568e-02,0.587344
1.0600e-02,0.6025
1.0632e-02,0.631562
1.0664e-02,0.665156
1.0696e-02,0.694219
1.0728e-02,0.722187
1.0760e-02,0.742031
1.0792e-02,0.760625
1.0824e-02,0.788125
1.0856e-02,0.83375
1.0888e-02,0.871563
1.0920e-02,0.922969
1.0952e-02,0.975469
1.0984e-02,1.03125
1.1016e-02,1.09906
1.1048e-02,1.17312
1.1080e-02,1.24734
1.1112e-02,1.325
1.1144e-02,1.37875
1.1176e-02,1.44797
1.1208e-02,1.52
1.1240e-02,1.58922
1.1272e-02,1.66922
1.1304e-02,1.76484
1.1336e-02,1.85188
1.1368e-02,1.9425
1.1400e-02,2.05922
1.1432e-02,2.15859
1.1464e-02,2.2575
1.1496e-02,2.36578
1.1528e-02,2.48297
1.1560e-02,2.60234
1.1592e-02,2.68172
1.1624e-02,2.77562
1.1656e-02,2.87719
1.1688e-02,2.97109
1.1720e-02,3.05187
1.1752e-02,3.10406
1.1784e-02,3.19859
1.1816e-02,3.27219
1.1848e-02,3.32844
1.1880e-02,3.39156
1.1912e-02,3.41266
1.1944e-02,3.41625
1.1976e-02,3.44203
1.2008e-02,3.44734
1.2040e-02,3.41562
1.2072e-02,3.39469
1.2104e-02,3.33422
1.2136e-02,3.30344
1.2168e-02,3.24625
1.2200e-02,3.185
1.2232e-02,3.10594
1.2264e-02,3.00516
1.2296e-02,2.91391
1.2328e-02,2.80656
1.2360e-02,2.69766
1.2392e-02,2.55969
1.2424e-02,2.43656
1.2456e-02,2.30687
1.2488e-02,2.17938
1.2520e-02,2.05922
1.2552e-02,1.93
1.2584e-02,1.82344
1.2616e-02,1.69953
1.2648e-02,1.58078
1.2680e-02,1.47953
1.2712e-02,1.38109
1.2744e-02,1.28547
1.2776e-02,1.19234
1.2808e-02,1.11391
1.2840e-02,1.04969
1.2872e-02,0.974063
1.2904e-02,0.909063
1.2936e-02,0.870312
1.2968e-02,0.827969
1.3000e-02,0.769687
1.3032e-02,0.726719
1.3064e-02,0.688594
1.3096e-02,0.669844
1.3128e-02,0.63875
1.3160e-02,0.615937
1.3192e-02,0.600938
1.3224e-02,0.583906
1.3256e-02,0.575156
1.3288e-02,0.573906
1.3320e-02,0.555625
1.3352e-02,0.550781
1.3384e-02,0.540781
1.3416e-02,0.54
1.3448e-02,0.542344
1.3480e-02,0.536719
1.3512e-02,0.526406
1.3544e-02,0.535937
1.3576e-02,0.524687
1.3608e-02,0.544687
1.3640e-02,0.562187
1.3672e-02,0.5875
1.3704e-02,0.592031
1.3736e-02,0.610781
1.3768e-02,0.640312
1.3800e-02,0.661406
1.3832e-02,0.690937
1.3864e-02,0.728125
1.3896e-02,0.768438
1.3928e-02,0.820625
1.3960e-02,0.865781
1.3992e-02,0.910312
1.4024e-02,0.98
1.4056e-02,1.06422
1.4088e-02,1.13813
1.4120e-02,1.22797
1.4152e-02,1.30547
1.4184e-02,1.39391
1.4216e-02,1.49609
1.4248e-02,1.59609
1.4280e-02,1.68547
1.4312e-02,1.77875
1.4344e-02,1.87078
1.4376e-02,1.96609
1.4408e-02,2.03719
1.4440e-02,2.10984
1.4472e-02,2.17625
1.4504e-02,2.23937
1.4536e-02,2.32156
1.4568e-02,2.36609
1.4600e-02,2.41531
1.4632e-02,2.44172
1.4664e-02,2.46859
1.4696e-02,2.47469
1.4728e-02,2.47
1.4760e-02,2.43156
1.4792e-02,2.41266
1.4824e-02,2.37859
1.4856e-02,2.31062
1.4888e-02,2.26469
1.4920e-02,2.21625
1.4952e-02,2.13125
1.4984e-02,2.02453
1.5016e-02,1.93469
1.5048e-02,1.86984
1.5080e-02,1.77687
1.5112e-02,1.69281
1.5144e-02,1.5925
1.5176e-02,1.51187
1.5208e-02,1.43063
1.5240e-02,1.37438
1.5272e-02,1.28687
1.5304e-02,1.21516
1.5336e-02,1.17203
1.5368e-02,1.12688
1.5400e-02,1.08312
1.5432e-02,1.04906
1.5464e-02,1.00891
1.5496e-02,0.975156
1.5528e-02,0.954063
1.5560e-02,0.942813
1.5592e-02,0.930312
1.5624e-02,0.915469
1.5656e-02,0.905156
1.5688e-02,0.912187
1.5720e-02,0.909844
1.5752e-02,0.933906
1.5784e-02,0.936406
1.5816e-02,0.962656
1.5848e-02,0.976562
1.5880e-02,0.988594
1.5912e-02,1.00578
1.5944e-02,1.01063
1.5976e-02,1.04094
1.6008e-02,1.05406
1.6040e-02,1.08047
1.6072e-02,1.10547
1.6104e-02,1.12187
1.6136e-02,1.14312
1.6168e-02,1.155
1.6200e-02,1.19516
1.6232e-02,1.22891
1.6264e-02,1.25234
1.6296e-02,1.28234
1.6328e-02,1.30797
1.6360e-02,1.34391
1.6392e-02,1.37547
1.6424e-02,1.40813
1.6456e-02,1.45812
1.6488e-02,1.50891
1.6520e-02,1.58047
1.6552e-02,1.63062
1.6584e-02,1.72469
1.6616e-02,1.80797
1.6648e-02,1.91641
1.6680e-02,2.01625
1.6712e-02,2.14969
1.6744e-02,2.26953
1.6776e-02,2.43219
1.6808e-02,2.60516
1.6840e-02,2.74453
1.6872e-02,2.88156
1.6904e-02,3.03766
1.6936e-02,3.18156
1.6968e-02,3.30437
1.7000e-02,3.40281
1.7032e-02,3.50859
1.7064e-02,3.62422
1.7096e-02,3.69828
1.7128e-02,3.76641
1.7160e-02,3.79891
1.7192e-02,3.81
1.7224e-02,3.79828
1.7256e-02,3.76578
1.7288e-02,3.72672
1.7320e-02,3.6425
1.7352e-02,3.53719
1.7384e-02,3.42781
1.7416e-02,3.28922
1.7448e-02,3.14781
1.7480e-02,2.98734
1.7512e-02,2.82
1.7544e-02,2.65641
1.7576e-02,2.48266
1.7608e-02,2.29453
1.7640e-02,2.13219
1.7672e-02,1.96094
1.7704e-02,1.80875
1.7736e-02,1.65859
1.7768e-02,1.51531
1.7800e-02,1.39828
1.7832e-02,1.29766
1.7864e-02,1.21891
1.7896e-02,1.13234
1.7928e-02,1.05844
1.7960e-02,1.01703
1.7992e-02,0.961875
1.8024e-02,0.938594
1.8056e-02,0.914375
1.8088e-02,0.895781
1.8120e-02,0.872187
1.8152e-02,0.863437
1.8184e-02,0.844844
1.8216e-02,0.835938
1.8248e-02,0.826094
1.8280e-02,0.821562
1.8312e-02,0.817813
1.8344e-02,0.821562
1.8376e-02,0.796094
1.8408e-02,0.780781
1.8440e-02,0.773125
1.8472e-02,0.775781
1.8504e-02,0.741563
1.8536e-02,0.736875
1.8568e-02,0.739688
1.8600e-02,0.725938
1.8632e-02,0.738281
1.8664e-02,0.716094
1.8696e-02,0.7225
1.8728e-02,0.736719
1.8760e-02,0.741719
1.8792e-02,0.759062
1.8824e-02,0.786563
1.8856e-02,0.812656
1.8888e-02,0.843125
1.8920e-02,0.893438
1.8952e-02,0.964688
1.8984e-02,1.02703
1.9016e-02,1.10484
1.9048e-02,1.19969
1.9080e-02,1.28797
1.9112e-02,1.38578
1.9144e-02,1.47313
1.9176e-02,1.56859
1.9208e-02,1.68781
1.9240e-02,1.79562
1.9272e-02,1.89516
1.9304e-02,1.96359
1.9336e-02,2.07625
1.9368e-02,2.13719
1.9400e-02,2.20469
1.9432e-02,2.275
1.9464e-02,2.33312
1.9496e-02,2.39578
1.9528e-02,2.41703
1.9560e-02,2.43063
1.9592e-02,2.42156
1.9624e-02,2.40422
1.9656e-02,2.39266
1.9688e-02,2.35656
1.9720e-02,2.3025
1.9752e-02,2.26281
1.9784e-02,2.18203
1.9816e-02,2.09766
1.9848e-02,2.01625
1.9880e-02,1.91266
1.9912e-02,1.81594
1.9944e-02,1.70219
1.9976e-02,1.61703
2.0008e-02,1.50297
2.0040e-02,1.40156
2.0072e-02,1.31047
2.0104e-02,1.23422
2.0136e-02,1.16578
2.0168e-02,1.12
2.0200e-02,1.06312
2.0232e-02,1.01172
2.0264e-02,0.969062
2.0296e-02,0.933125
2.0328e-02,0.914531
2.0360e-02,0.899219
2.0392e-02,0.897969
2.0424e-02,0.887031
2.0456e-02,0.870625
2.0488e-02,0.872344
2.0520e-02,0.873125
2.0552e-02,0.858437
2.0584e-02,0.83875
2.0616e-02,0.842969
2.0648e-02,0.835
2.0680e-02,0.826563
2.0712e-02,0.82
2.0744e-02,0.819062
2.0776e-02,0.821094
2.0808e-02,0.823594
2.0840e-02,0.819844
2.0872e-02,0.813906
2.0904e-02,0.821875
2.0936e-02,0.831875
2.0968e-02,0.85625
2.1000e-02,0.896406
2.1032e-02,0.927344
2.1064e-02,0.980938
2.1096e-02,1.0375
2.1128e-02,1.08625
2.1160e-02,1.16047
2.1192e-02,1.24172
2.1224e-02,1.32687
2.1256e-02,1.41828
2.1288e-02,1.525
2.1320e-02,1.62703
2.1352e-02,1.73422
2.1384e-02,1.85672
2.1416e-02,1.96453
2.1448e-02,2.0975
2.1480e-02,2.22047
2.1512e-02,2.33812
2.1544e-02,2.44953
2.1576e-02,2.58312
2.1608e-02,2.68547
2.1640e-02,2.79203
2.1672e-02,2.91609
2.1704e-02,2.98937
2.1736e-02,3.04297
2.1768e-02,3.11844
2.1800e-02,3.14359
2.1832e-02,3.14562
2.1864e-02,3.16547
2.1896e-02,3.13859
2.1928e-02,3.10281
2.1960e-02,3.05578
2.1992e-02,2.97141
2.2024e-02,2.87984
2.2056e-02,2.78828
2.2088e-02,2.66219
2.2120e-02,2.53891
2.2152e-02,2.40484
2.2184e-02,2.26047
2.2216e-02,2.12078
2.2248e-02,1.96719
2.2280e-02,1.80797
2.2312e-02,1.645
2.2344e-02,1.48562
2.2376e-02,1.34594
2.2408e-02,1.22016
2.2440e-02,1.10406
2.2472e-02,0.997187
2.2504e-02,0.90375
2.2536e-02,0.818906
2.2568e-02,0.741719
2.2600e-02,0.682031
2.2632e-02,0.623125
2.2664e-02,0.571406
2.2696e-02,0.534531
2.2728e-02,0.506406
2.2760e-02,0.483906
2.2792e-02,0.466406
2.2824e-02,0.452031
2.2856e-02,0.450781
2.2888e-02,0.434375
2.2920e-02,0.429688
2.2952e-02,0.424844
2.2984e-02,0.431406
2.3016e-02,0.447812
2.3048e-02,0.446562
2.3080e-02,0.450625
2.3112e-02,0.461719
2.3144e-02,0.468437
2.3176e-02,0.489219
2.3208e-02,0.504687
2.3240e-02,0.514531
2.3272e-02,0.515
2.3304e-02,0.538125
2.3336e-02,0.552656
2.3368e-02,0.590469
2.3400e-02,0.605313
2.3432e-02,0.636094
2.3464e-02,0.664062
2.3496e-02,0.693437
2.3528e-02,0.717188
2.3560e-02,0.768438
2.3592e-02,0.817031
2.3624e-02,0.857344
2.3656e-02,0.890469
2.3688e-02,0.951406
2.3720e-02,1.01172
2.3752e-02,1.0475
2.3784e-02,1.11734
2.3816e-02,1.1825
2.3848e-02,1.23984
2.3880e-02,1.28641
2.3912e-02,1.33812
2.3944e-02,1.375
2.3976e-02,1.41406
2.4008e-02,1.46594
2.4040e-02,1.48656
2.4072e-02,1.51391
2.4104e-02,1.52234
2.4136e-02,1.52984
2.4168e-02,1.51172
2.4200e-02,1.51953
2.4232e-02,1.48922
2.4264e-02,1.44766
2.4296e-02,1.40594
2.4328e-02,1.35859
2.4360e-02,1.28281
2.4392e-02,1.22844
2.4424e-02,1.15219
2.4456e-02,1.08578
2.4488e-02,1.01687
2.4520e-02,0.941562
2.4552e-02,0.890469
2.4584e-02,0.827187
2.4616e-02,0.763281
2.4648e-02,0.701406
2.4680e-02,0.647656
2.4712e-02,0.593906
2.4744e-02,0.547813
2.4776e-02,0.499062
2.4808e-02,0.454687
2.4840e-02,0.424844
2.4872e-02,0.394531
2.4904e-02,0.370781
2.4936e-02,0.349219
2.4968e-02,0.330625
2.5000e-02,0.317344
2.5032e-02,0.297187
2.5064e-02,0.291875
2.5096e-02,0.295469
2.5128e-02,0.272187
2.5160e-02,0.260469
2.5192e-02,0.261875
2.5224e-02,0.2625
2.5256e-02,0.252656
2.5288e-02,0.236719
2.5320e-02,0.249687
2.5352e-02,0.251562
2.5384e-02,0.25125
2.5416e-02,0.256719
2.5448e-02,0.25375
2.5480e-02,0.260469
2.5512e-02,0.271406
2.5544e-02,0.270625
2.5576e-02,0.269062
2.5608e-02,0.274062
2.5640e-02,0.279531
2.5672e-02,0.287187
2.5704e-02,0.296406
2.5736e-02,0.305
2.5768e-02,0.318125
2.5800e-02,0.32875
2.5832e-02,0.344375
2.5864e-02,0.362969
2.5896e-02,0.382188
2.5928e-02,0.383125
2.5960e-02,0.405
2.5992e-02,0.427812
2.6024e-02,0.437344
2.6056e-02,0.456875
2.6088e-02,0.480781
2.6120e-02,0.493906
2.6152e-02,0.508437
2.6184e-02,0.522344
2.6216e-02,0.537187
2.6248e-02,0.546406
2.6280e-02,0.553281
2.6312e-02,0.548594
2.6344e-02,0.558906
2.6376e-02,0.566094
2.6408e-02,0.569375
2.6440e-02,0.558438
2.6472e-02,0.549062
2.6504e-02,0.540781
2.6536e-02,0.535937
2.6568e-02,0.515
2.6600e-02,0.490625
2.6632e-02,0.477344
2.6664e-02,0.460781
2.6696e-02,0.441562
2.6728e-02,0.417187
2.6760e-02,0.399219
2.6792e-02,0.377969
2.6824e-02,0.349687
2.6856e-02,0.326563
2.6888e-02,0.313594
2.6920e-02,0.293281
2.6952e-02,0.272344
2.6984e-02,0.253437
2.7016e-02,0.240469
2.7048e-02,0.219219
2.7080e-02,0.210625
2.7112e-02,0.197344
2.7144e-02,0.179219
2.7176e-02,0.176094
2.7208e-02,0.172656
2.7240e-02,0.163906
2.7272e-02,0.149687
2.7304e-02,0.139844
2.7336e-02,0.141406
2.7368e-02,0.142187
2.7400e-02,0.141563
2.7432e-02,0.140625
2.7464e-02,0.141875
2.7496e-02,0.143438
2.7528e-02,0.144062
2.7560e-02,0.142031
2.7592e-02,0.141094
2.7624e-02,0.143125
2.7656e-02,0.142187
2.7688e-02,0.141719
2.7720e-02,0.140937
2.7752e-02,0.141719
2.7784e-02,0.142969
2.7816e-02,0.140781
2.7848e-02,0.14125
2.7880e-02,0.141094
2.7912e-02,0.140781
2.7944e-02,0.140781
2.7976e-02,0.139687
2.8008e-02,0.139687
2.8040e-02,0.139219
2.8072e-02,0.139531
2.8104e-02,0.139844
2.8136e-02,0.139844
2.8168e-02,0.140469
2.8200e-02,0.140312
2.8232e-02,0.142187
2.8264e-02,0.141406
2.8296e-02,0.140937
2.8328e-02,0.140781
2.8360e-02,0.14125
2.8392e-02,0.140625
2.8424e-02,0.140781
2.8456e-02,0.144844
2.8488e-02,0.148125
2.8520e-02,0.150625
2.8552e-02,0.15125
2.8584e-02,0.157812
2.8616e-02,0.165938
2.8648e-02,0.16625
2.8680e-02,0.182969
2.8712e-02,0.190469
2.8744e-02,0.202656
2.8776e-02,0.217031
2.8808e-02,0.232031
2.8840e-02,0.249531
2.8872e-02,0.2675
2.8904e-02,0.282812
2.8936e-02,0.299062
2.8968e-02,0.32125
2.9000e-02,0.345
2.9032e-02,0.362656
2.9064e-02,0.395
2.9096e-02,0.427656
2.9128e-02,0.450469
2.9160e-02,0.480156
2.9192e-02,0.497187
2.9224e-02,0.526562
2.9256e-02,0.544531
2.9288e-02,0.566406
2.9320e-02,0.607656
2.9352e-02,0.632656
2.9384e-02,0.64625
2.9416e-02,0.663438
2.9448e-02,0.686875
2.9480e-02,0.693437
2.9512e-02,0.697969
2.9544e-02,0.700156
2.9576e-02,0.702344
2.9608e-02,0.701563
2.9640e-02,0.674688
2.9672e-02,0.68
2.9704e-02,0.653594
2.9736e-02,0.632969
2.9768e-02,0.614375
2.9800e-02,0.580625
2.9832e-02,0.547813
2.9864e-02,0.52875
2.9896e-02,0.498438
2.9928e-02,0.482813
2.9960e-02,0.462813
2.9992e-02,0.425312
3.0024e-02,0.40375
3.0056e-02,0.370781
3.0088e-02,0.343281
3.0120e-02,0.33125
3.0152e-02,0.313906
3.0184e-02,0.301094
3.0216e-02,0.299531
3.0248e-02,0.295781
3.0280e-02,0.282969
3.0312e-02,0.269219
3.0344e-02,0.267031
3.0376e-02,0.273594
3.0408e-02,0.277031
3.0440e-02,0.282656
3.0472e-02,0.285625
3.0504e-02,0.293906
3.0536e-02,0.304531
3.0568e-02,0.312344
3.0600e-02,0.3225
3.0632e-02,0.330781
3.0664e-02,0.344062
3.0696e-02,0.348906
3.0728e-02,0.363125
3.0760e-02,0.383594
3.0792e-02,0.393281
3.0824e-02,0.415312
3.0856e-02,0.435156
3.0888e-02,0.454687
3.0920e-02,0.477969
3.0952e-02,0.509531
3.0984e-02,0.537656
3.1016e-02,0.581562
3.1048e-02,0.62
3.1080e-02,0.653281
3.1112e-02,0.698594
3.1144e-02,0.752344
3.1176e-02,0.793438
3.1208e-02,0.832031
3.1240e-02,0.896562
3.1272e-02,0.959219
3.1304e-02,1.0175
3.1336e-02,1.0725
3.1368e-02,1.11984
3.1400e-02,1.16109
3.1432e-02,1.20187
3.1464e-02,1.23844
3.1496e-02,1.27859
3.1528e-02,1.31484
3.1560e-02,1.3375
3.1592e-02,1.33688
3.1624e-02,1.34281
3.1656e-02,1.32984
3.1688e-02,1.32313
3.1720e-02,1.3075
3.1752e-02,1.30375
3.1784e-02,1.28391
3.1816e-02,1.23438
3.1848e-02,1.20578
3.1880e-02,1.16812
3.1912e-02,1.10266
3.1944e-02,1.06812
3.1976e-02,1.02281
3.2008e-02,0.975938
3.2040e-02,0.921406
3.2072e-02,0.885937
3.2104e-02,0.8525
3.2136e-02,0.816406
3.2168e-02,0.779531
3.2200e-02,0.737031
3.2232e-02,0.696719
3.2264e-02,0.665781
3.2296e-02,0.647656
3.2328e-02,0.625312
3.2360e-02,0.606094
3.2392e-02,0.580156
3.2424e-02,0.569531
3.2456e-02,0.552812
3.2488e-02,0.542656
3.2520e-02,0.544844
3.2552e-02,0.543906
3.2584e-02,0.52625
3.2616e-02,0.509844
3.2648e-02,0.508281
3.2680e-02,0.513906
3.2712e-02,0.518281
3.2744e-02,0.518906
3.2776e-02,0.536875
3.2808e-02,0.549531
3.2840e-02,0.580625
3.2872e-02,0.595625
3.2904e-02,0.625781
3.2936e-02,0.665312
3.2968e-02,0.710625
3.3000e-02,0.754219
3.3032e-02,0.805625
3.3064e-02,0.870781
3.3096e-02,0.944531
3.3128e-02,1.02188
3.3160e-02,1.12266
3.3192e-02,1.21391
3.3224e-02,1.31109
3.3256e-02,1.42781
3.3288e-02,1.55766
3.3320e-02,1.68391
3.3352e-02,1.82594
3.3384e-02,1.98219
3.3416e-02,2.13016
3.3448e-02,2.2825
3.3480e-02,2.43281
3.3512e-02,2.56078
3.3544e-02,2.70094
3.3576e-02,2.82531
3.3608e-02,2.93141
3.3640e-02,3.01156
3.3672e-02,3.09891
3.3704e-02,3.16156
3.3736e-02,3.20797
3.3768e-02,3.23828
3.3800e-02,3.23375
3.3832e-02,3.225
3.3864e-02,3.18641
3.3896e-02,3.13969
3.3928e-02,3.06937
3.3960e-02,2.99313
3.3992e-02,2.87844
3.4024e-02,2.75578
3.4056e-02,2.61875
3.4088e-02,2.50094
3.4120e-02,2.36469
3.4152e-02,2.21859
3.4184e-02,2.07266
3.4216e-02,1.93109
3.4248e-02,1.77266
3.4280e-02,1.63109
3.4312e-02,1.495
3.4344e-02,1.37688
3.4376e-02,1.25562
3.4408e-02,1.13922
3.4440e-02,1.04719
3.4472e-02,0.974063
3.4504e-02,0.8775
3.4536e-02,0.818281
3.4568e-02,0.771875
3.4600e-02,0.723281
3.4632e-02,0.677188
3.4664e-02,0.653906
3.4696e-02,0.615469
3.4728e-02,0.583281
3.4760e-02,0.576094
3.4792e-02,0.563594
3.4824e-02,0.544062
3.4856e-02,0.544844
3.4888e-02,0.531406
3.4920e-02,0.541562
3.4952e-02,0.553437
3.4984e-02,0.568594
3.5016e-02,0.5975
3.5048e-02,0.619375
3.5080e-02,0.642031
3.5112e-02,0.674531
3.5144e-02,0.714062
3.5176e-02,0.757188
3.5208e-02,0.818906
3.5240e-02,0.887656
3.5272e-02,0.968437
3.5304e-02,1.05375
3.5336e-02,1.14875
3.5368e-02,1.23281
3.5400e-02,1.33266
3.5432e-02,1.44188
3.5464e-02,1.52781
3.5496e-02,1.62547
3.5528e-02,1.71547
3.5560e-02,1.81844
3.5592e-02,1.92281
3.5624e-02,2.01187
3.5656e-02,2.08188
3.5688e-02,2.15
3.5720e-02,2.19703
3.5752e-02,2.24594
3.5784e-02,2.27562
3.5816e-02,2.28406
3.5848e-02,2.27156
3.5880e-02,2.28234
3.5912e-02,2.26219
3.5944e-02,2.23953
3.5976e-02,2.17984
3.6008e-02,2.14938
3.6040e-02,2.07984
3.6072e-02,2.00438
3.6104e-02,1.92625
3.6136e-02,1.84297
3.6168e-02,1.74703
3.6200e-02,1.65641
3.6232e-02,1.55828
3.6264e-02,1.4775
3.6296e-02,1.38797
3.6328e-02,1.31797
3.6360e-02,1.24531
3.6392e-02,1.17234
3.6424e-02,1.12281
3.6456e-02,1.06094
3.6488e-02,1.01781
3.6520e-02,0.993437
3.6552e-02,0.976875
3.6584e-02,0.946719
3.6616e-02,0.946562
3.6648e-02,0.942344
3.6680e-02,0.949219
3.6712e-02,0.949375
3.6744e-02,0.971094
3.6776e-02,0.982031
3.6808e-02,0.97875
3.6840e-02,0.997031
3.6872e-02,1.01797
3.6904e-02,1.02859
3.6936e-02,1.05969
3.6968e-02,1.08953
3.7000e-02,1.10172
3.7032e-02,1.12234
3.7064e-02,1.15203
3.7096e-02,1.19094
3.7128e-02,1.23219
3.7160e-02,1.275
3.7192e-02,1.31578
3.7224e-02,1.37656
3.7256e-02,1.44047
3.7288e-02,1.51109
3.7320e-02,1.59234
3.7352e-02,1.67766
3.7384e-02,1.78437
3.7416e-02,1.90797
3.7448e-02,2.01641
3.7480e-02,2.15078
3.7512e-02,2.26016
3.7544e-02,2.39078
3.7576e-02,2.54172
3.7608e-02,2.68594
3.7640e-02,2.83516
3.7672e-02,2.99547
3.7704e-02,3.11219
3.7736e-02,3.19844
3.7768e-02,3.29047
3.7800e-02,3.37766
3.7832e-02,3.42719
3.7864e-02,3.47625
3.7896e-02,3.50484
3.7928e-02,3.49875
3.7960e-02,3.49812
3.7992e-02,3.48562
3.8024e-02,3.415
3.8056e-02,3.33781
3.8088e-02,3.22063
3.8120e-02,3.09391
3.8152e-02,2.94859
3.8184e-02,2.82688
3.8216e-02,2.67719
3.8248e-02,2.52047
3.8280e-02,2.33937
3.8312e-02,2.17766
3.8344e-02,2.02328
3.8376e-02,1.86891
3.8408e-02,1.72734
3.8440e-02,1.59766
3.8472e-02,1.45797
3.8504e-02,1.33906
3.8536e-02,1.24141
3.8568e-02,1.15516
3.8600e-02,1.07375
3.8632e-02,1.00422
3.8664e-02,0.955625
3.8696e-02,0.927656
3.8728e-02,0.890937
3.8760e-02,0.864062
3.8792e-02,0.834062
3.8824e-02,0.806406
3.8856e-02,0.80625
3.8888e-02,0.779375
3.8920e-02,0.778437
3.8952e-02,0.772969
3.8984e-02,0.739844
3.9016e-02,0.735781
3.9048e-02,0.738281
3.9080e-02,0.740312
3.9112e-02,0.73
3.9144e-02,0.748906
3.9176e-02,0.764531
3.9208e-02,0.762344
3.9240e-02,0.766719
3.9272e-02,0.783125
3.9304e-02,0.815469
3.9336e-02,0.864375
3.9368e-02,0.927188
3.9400e-02,0.988437
3.9432e-02,1.05844
3.9464e-02,1.13219
3.9496e-02,1.20594
3.9528e-02,1.28281
3.9560e-02,1.38125
3.9592e-02,1.46953
3.9624e-02,1.56297
3.9656e-02,1.66391
3.9688e-02,1.78641
3.9720e-02,1.88078
3.9752e-02,1.97406
3.9784e-02,2.06219
3.9816e-02,2.12391
3.9848e-02,2.16297
3.9880e-02,2.21469
3.9912e-02,2.24422
3.9944e-02,2.25531
3.9976e-02,2.27266
4.0008e-02,2.28234
4.0040e-02,2.28828
4.0072e-02,2.24641
4.0104e-02,2.19437
4.0136e-02,2.12906
4.0168e-02,2.06625
4.0200e-02,2.00188
4.0232e-02,1.91141
4.0264e-02,1.81734
4.0296e-02,1.72688
4.0328e-02,1.63875
4.0360e-02,1.57484
4.0392e-02,1.48062
4.0424e-02,1.39438
4.0456e-02,1.30547
4.0488e-02,1.23984
4.0520e-02,1.16391
4.0552e-02,1.09797
4.0584e-02,1.04656
4.0616e-02,1.00672
4.0648e-02,0.9725
4.0680e-02,0.937344
4.0712e-02,0.914687
4.0744e-02,0.8825
4.0776e-02,0.851562
4.0808e-02,0.821562
4.0840e-02,0.820469
4.0872e-02,0.826094
4.0904e-02,0.823594
4.0936e-02,0.810781
4.0968e-02,0.82
4.1000e-02,0.825156
4.1032e-02,0.820625
4.1064e-02,0.834062
4.1096e-02,0.8375
4.1128e-02,0.857344
4.1160e-02,0.88375
4.1192e-02,0.911719
4.1224e-02,0.954844
4.1256e-02,0.998125
4.1288e-02,1.05172
4.1320e-02,1.11328
4.1352e-02,1.19125
4.1384e-02,1.27484
4.1416e-02,1.37266
4.1448e-02,1.44844
4.1480e-02,1.57
4.1512e-02,1.6875
4.1544e-02,1.81109
4.1576e-02,1.94937
4.1608e-02,2.0575
4.1640e-02,2.19719
4.1672e-02,2.33156
4.1704e-02,2.45266
4.1736e-02,2.5725
4.1768e-02,2.66578
4.1800e-02,2.77
4.1832e-02,2.83437
4.1864e-02,2.86641
4.1896e-02,2.92672
4.1928e-02,2.92812
4.1960e-02,2.96469
4.1992e-02,2.9475
4.2024e-02,2.94016
4.2056e-02,2.90219
4.2088e-02,2.83703
4.2120e-02,2.75047
4.2152e-02,2.68422
4.2184e-02,2.57219
4.2216e-02,2.43406
4.2248e-02,2.29891
4.2280e-02,2.18656
4.2312e-02,2.06297
4.2344e-02,1.92203
4.2376e-02,1.78969
4.2408e-02,1.64328
4.2440e-02,1.51187
4.2472e-02,1.37609
4.2504e-02,1.24781
4.2536e-02,1.12328
4.2568e-02,1.0125
4.2600e-02,0.905156
4.2632e-02,0.811875
4.2664e-02,0.735
4.2696e-02,0.672187
4.2728e-02,0.621094
4.2760e-02,0.575
4.2792e-02,0.536719
4.2824e-02,0.508281
4.2856e-02,0.484219
4.2888e-02,0.461094
4.2920e-02,0.460313
4.2952e-02,0.456875
4.2984e-02,0.443906
4.3016e-02,0.456875
4.3048e-02,0.453594
4.3080e-02,0.462969
4.3112e-02,0.474375
4.3144e-02,0.492969
4.3176e-02,0.502187
4.3208e-02,0.520156
4.3240e-02,0.524687
4.3272e-02,0.550469
4.3304e-02,0.573125
4.3336e-02,0.593437
4.3368e-02,0.626094
4.3400e-02,0.659531
4.3432e-02,0.704531
4.3464e-02,0.754062
4.3496e-02,0.806719
4.3528e-02,0.85125
4.3560e-02,0.897969
4.3592e-02,0.942031
4.3624e-02,0.991719
4.3656e-02,1.06625
4.3688e-02,1.12109
4.3720e-02,1.17484
4.3752e-02,1.22891
4.3784e-02,1.29203
4.3816e-02,1.32203
4.3848e-02,1.35344
4.3880e-02,1.37297
4.3912e-02,1.3925
4.3944e-02,1.42547
4.3976e-02,1.42281
4.4008e-02,1.40953
4.4040e-02,1.41094
4.4072e-02,1.4
4.4104e-02,1.38391
4.4136e-02,1.35953
4.4168e-02,1.31953
4.4200e-02,1.25797
4.4232e-02,1.21437
4.4264e-02,1.1525
4.4296e-02,1.07406
4.4328e-02,1.02594
4.4360e-02,0.958281
4.4392e-02,0.885625
4.4424e-02,0.829687
4.4456e-02,0.765156
4.4488e-02,0.713594
4.4520e-02,0.648594
4.4552e-02,0.601875
4.4584e-02,0.550781
4.4616e-02,0.511875
4.4648e-02,0.471875
4.4680e-02,0.425469
4.4712e-02,0.398281
4.4744e-02,0.374531
4.4776e-02,0.337813
4.4808e-02,0.321094
4.4840e-02,0.3075
4.4872e-02,0.300469
4.4904e-02,0.295625
4.4936e-02,0.268906
4.4968e-02,0.260469
4.5000e-02,0.260156
4.5032e-02,0.259844
4.5064e-02,0.26
4.5096e-02,0.259531
4.5128e-02,0.260312
4.5160e-02,0.263437
4.5192e-02,0.261406
4.5224e-02,0.260937
4.5256e-02,0.26625
4.5288e-02,0.265781
4.5320e-02,0.27625
4.5352e-02,0.285156
4.5384e-02,0.296562
4.5416e-02,0.306563
4.5448e-02,0.321875
4.5480e-02,0.3375
4.5512e-02,0.351875
4.5544e-02,0.362656
4.5576e-02,0.375156
4.5608e-02,0.38875
4.5640e-02,0.405312
4.5672e-02,0.4275
4.5704e-02,0.440781
4.5736e-02,0.450156
4.5768e-02,0.47
4.5800e-02,0.492656
4.5832e-02,0.500781
4.5864e-02,0.507344
4.5896e-02,0.519219
4.5928e-02,0.519375
4.5960e-02,0.52875
4.5992e-02,0.531719
4.6024e-02,0.540312
4.6056e-02,0.525937
4.6088e-02,0.519062
4.6120e-02,0.509219
4.6152e-02,0.499375
4.6184e-02,0.495
4.6216e-02,0.483125
4.6248e-02,0.466875
4.6280e-02,0.445781
4.6312e-02,0.430937
4.6344e-02,0.413281
4.6376e-02,0.380625
4.6408e-02,0.367344
4.6440e-02,0.339062
4.6472e-02,0.334062
4.6504e-02,0.310156
4.6536e-02,0.294219
4.6568e-02,0.280312
4.6600e-02,0.257188
4.6632e-02,0.235781
4.6664e-02,0.217969
4.6696e-02,0.212969
4.6728e-02,0.197344
4.6760e-02,0.179531
4.6792e-02,0.179375
4.6824e-02,0.179063
4.6856e-02,0.177656
4.6888e-02,0.160469
4.6920e-02,0.150937
4.6952e-02,0.145312
4.6984e-02,0.140156
4.7016e-02,0.149219
4.7048e-02,0.149844
4.7080e-02,0.144844
4.7112e-02,0.145469
4.7144e-02,0.146562
4.7176e-02,0.145625
4.7208e-02,0.144687
4.7240e-02,0.144844
4.7272e-02,0.141875
4.7304e-02,0.144687
4.7336e-02,0.146562
4.7368e-02,0.145
4.7400e-02,0.145469
4.7432e-02,0.141094
4.7464e-02,0.140625
4.7496e-02,0.141406
4.7528e-02,0.140781
4.7560e-02,0.140469
4.7592e-02,0.141563
4.7624e-02,0.141094
4.7656e-02,0.141875
4.7688e-02,0.142812
4.7720e-02,0.140937
4.7752e-02,0.140469
4.7784e-02,0.142031
4.7816e-02,0.142969
4.7848e-02,0.1425
4.7880e-02,0.142969
4.7912e-02,0.149844
4.7944e-02,0.153437
4.7976e-02,0.155937
4.8008e-02,0.165938
4.8040e-02,0.177344
4.8072e-02,0.186094
4.8104e-02,0.195625
4.8136e-02,0.209531
4.8168e-02,0.215781
4.8200e-02,0.230938
4.8232e-02,0.24875
4.8264e-02,0.267344
4.8296e-02,0.284687
4.8328e-02,0.306719
4.8360e-02,0.330625
4.8392e-02,0.354375
4.8424e-02,0.381875
4.8456e-02,0.405781
4.8488e-02,0.431094
4.8520e-02,0.458906
4.8552e-02,0.485625
4.8584e-02,0.520312
4.8616e-02,0.547656
4.8648e-02,0.58375
4.8680e-02,0.601562
4.8712e-02,0.615937
4.8744e-02,0.63125
4.8776e-02,0.637188
4.8808e-02,0.64625
4.8840e-02,0.653594
4.8872e-02,0.649531
4.8904e-02,0.654375
4.8936e-02,0.661563
4.8968e-02,0.637188
4.9000e-02,0.623125
4.9032e-02,0.614531
4.9064e-02,0.606562
4.9096e-02,0.579219
4.9128e-02,0.562344
4.9160e-02,0.539531
4.9192e-02,0.512656
4.9224e-02,0.483594
4.9256e-02,0.455469
4.9288e-02,0.430156
4.9320e-02,0.405937
4.9352e-02,0.382656
4.9384e-02,0.36375
4.9416e-02,0.347187
4.9448e-02,0.334531
4.9480e-02,0.316875
4.9512e-02,0.300469
4.9544e-02,0.300469
4.9576e-02,0.299844
4.9608e-02,0.301875
4.9640e-02,0.3025
4.9672e-02,0.298437
4.9704e-02,0.302812
4.9736e-02,0.298281
4.9768e-02,0.296875
4.9800e-02,0.308594
4.9832e-02,0.323125
4.9864e-02,0.331562
4.9896e-02,0.341094
4.9928e-02,0.349219
4.9960e-02,0.370156
4.9992e-02,0.389219
5.0024e-02,0.40875
5.0056e-02,0.432812
5.0088e-02,0.455
5.0120e-02,0.485625
5.0152e-02,0.532344
5.0184e-02,0.569375
5.0216e-02,0.6075
5.0248e-02,0.654844
5.0280e-02,0.705469
5.0312e-02,0.757031
5.0344e-02,0.804844
5.0376e-02,0.852969
5.0408e-02,0.905937
5.0440e-02,0.95375
5.0472e-02,1.00188
5.0504e-02,1.05828
5.0536e-02,1.10078
5.0568e-02,1.14609
5.0600e-02,1.18688
5.0632e-02,1.20812
5.0664e-02,1.22875
5.0696e-02,1.26203
5.0728e-02,1.25078
5.0760e-02,1.26969
5.0792e-02,1.25875
5.0824e-02,1.25969
5.0856e-02,1.23391
5.0888e-02,1.21578
5.0920e-02,1.21
5.0952e-02,1.16625
5.0984e-02,1.13969
5.1016e-02,1.09625
5.1048e-02,1.06781
5.1080e-02,1.02906
5.1112e-02,0.995469
5.1144e-02,0.96125
5.1176e-02,0.906094
5.1208e-02,0.860313
5.1240e-02,0.80625
5.1272e-02,0.765781
5.1304e-02,0.735
5.1336e-02,0.688906
5.1368e-02,0.661094
5.1400e-02,0.639531
5.1432e-02,0.605469
5.1464e-02,0.586875
5.1496e-02,0.570937
5.1528e-02,0.539219
5.1560e-02,0.538906
5.1592e-02,0.535
5.1624e-02,0.520781
5.1656e-02,0.50875
5.1688e-02,0.512344
5.1720e-02,0.523281
5.1752e-02,0.537812
5.1784e-02,0.551562
5.1816e-02,0.565
5.1848e-02,0.589062
5.1880e-02,0.617344
5.1912e-02,0.643594
5.1944e-02,0.696875
5.1976e-02,0.727031
5.2008e-02,0.783281
5.2040e-02,0.858281
5.2072e-02,0.936406
5.2104e-02,1.02141
5.2136e-02,1.11609
5.2168e-02,1.22594
5.2200e-02,1.33734
5.2232e-02,1.48156
5.2264e-02,1.61062
5.2296e-02,1.73766
5.2328e-02,1.87031
5.2360e-02,2.01766
5.2392e-02,2.18344
5.2424e-02,2.3125
5.2456e-02,2.42469
5.2488e-02,2.55578
5.2520e-02,2.67406
5.2552e-02,2.78609
5.2584e-02,2.86125
5.2616e-02,2.93109
5.2648e-02,2.97562
5.2680e-02,3.00359
5.2712e-02,3.00672
5.2744e-02,3.00156
5.2776e-02,2.99281
5.2808e-02,2.96172
5.2840e-02,2.92188
5.2872e-02,2.84531
5.2904e-02,2.79281
5.2936e-02,2.70063
5.2968e-02,2.59266
5.3000e-02,2.49422
5.3032e-02,2.36344
5.3064e-02,2.23953
5.3096e-02,2.08953
5.3128e-02,1.92781
5.3160e-02,1.7825
5.3192e-02,1.64016
5.3224e-02,1.51234
5.3256e-02,1.38578
5.3288e-02,1.26531
5.3320e-02,1.15672
5.3352e-02,1.06156
5.3384e-02,0.963906
5.3416e-02,0.87125
5.3448e-02,0.808438
5.3480e-02,0.745938
5.3512e-02,0.698125
5.3544e-02,0.654844
5.3576e-02,0.622031
5.3608e-02,0.605156
5.3640e-02,0.575469
5.3672e-02,0.579531
5.3704e-02,0.563125
5.3736e-02,0.568437
5.3768e-02,0.56875
5.3800e-02,0.585469
5.3832e-02,0.609844
5.3864e-02,0.632188
5.3896e-02,0.661406
5.3928e-02,0.703281
5.3960e-02,0.769219
5.3992e-02,0.825312
5.4024e-02,0.888906
5.4056e-02,0.961719
5.4088e-02,1.05422
5.4120e-02,1.14656
5.4152e-02,1.24516
5.4184e-02,1.34578
5.4216e-02,1.42734
5.4248e-02,1.52594
5.4280e-02,1.62234
5.4312e-02,1.7025
5.4344e-02,1.79625
5.4376e-02,1.87312
5.4408e-02,1.93938
5.4440e-02,2.00641
5.4472e-02,2.06828
5.4504e-02,2.10781
5.4536e-02,2.14594
5.4568e-02,2.15281
5.4600e-02,2.15531
5.4632e-02,2.15734
5.4664e-02,2.12422
5.4696e-02,2.10453
5.4728e-02,2.06344
5.4760e-02,2.01562
5.4792e-02,1.9725
5.4824e-02,1.92563
5.4856e-02,1.86203
5.4888e-02,1.805
5.4920e-02,1.74516
5.4952e-02,1.65422
5.4984e-02,1.56125
5.5016e-02,1.47141
5.5048e-02,1.37984
5.5080e-02,1.29453
5.5112e-02,1.21859
5.5144e-02,1.16078
5.5176e-02,1.11969
5.5208e-02,1.07656
5.5240e-02,1.04266
5.5272e-02,1.01547
5.5304e-02,0.99625
5.5336e-02,0.993594
5.5368e-02,0.998594
5.5400e-02,1.00281
5.5432e-02,1.00234
5.5464e-02,1.00609
5.5496e-02,1.02172
5.5528e-02,1.02562
5.5560e-02,1.02922
5.5592e-02,1.04078
5.5624e-02,1.04219
5.5656e-02,1.0725
5.5688e-02,1.10656
5.5720e-02,1.16047
5.5752e-02,1.20187
5.5784e-02,1.24219
5.5816e-02,1.29422
5.5848e-02,1.37359
5.5880e-02,1.45781
5.5912e-02,1.55672
5.5944e-02,1.67359
5.5976e-02,1.77203
5.6008e-02,1.90359
5.6040e-02,2.02562
5.6072e-02,2.13094
5.6104e-02,2.24688
5.6136e-02,2.38594
5.6168e-02,2.51359
5.6200e-02,2.63828
5.6232e-02,2.78484
5.6264e-02,2.89234
5.6296e-02,2.97609
5.6328e-02,3.08516
5.6360e-02,3.16359
5.6392e-02,3.22156
5.6424e-02,3.25422
5.6456e-02,3.26891
5.6488e-02,3.26109
5.6520e-02,3.26734
5.6552e-02,3.25375
5.6584e-02,3.21937
5.6616e-02,3.15297
5.6648e-02,3.06859
5.6680e-02,2.95984
5.6712e-02,2.86375
5.6744e-02,2.75031
5.6776e-02,2.62016
5.6808e-02,2.47891
5.6840e-02,2.32297
5.6872e-02,2.18453
5.6904e-02,2.02359
5.6936e-02,1.87844
5.6968e-02,1.73641
5.7000e-02,1.60812
5.7032e-02,1.48578
5.7064e-02,1.37187
5.7096e-02,1.25469
5.7128e-02,1.16703
5.7160e-02,1.08859
5.7192e-02,1.01547
5.7224e-02,0.940313
5.7256e-02,0.891406
5.7288e-02,0.857344
5.7320e-02,0.819062
5.7352e-02,0.8
5.7384e-02,0.779844
5.7416e-02,0.765625
5.7448e-02,0.748125
5.7480e-02,0.748125
5.7512e-02,0.750156
5.7544e-02,0.75875
5.7576e-02,0.766406
5.7608e-02,0.780156
5.7640e-02,0.787969
5.7672e-02,0.806406
5.7704e-02,0.837344
5.7736e-02,0.867656
5.7768e-02,0.908906
5.7800e-02,0.959687
5.7832e-02,1.02281
5.7864e-02,1.08719
5.7896e-02,1.16688
5.7928e-02,1.24687
5.7960e-02,1.33062
5.7992e-02,1.42328
5.8024e-02,1.51047
5.8056e-02,1.6025
5.8088e-02,1.66938
5.8120e-02,1.75531
5.8152e-02,1.83359
5.8184e-02,1.91172
5.8216e-02,1.98906
5.8248e-02,2.04766
5.8280e-02,2.07984
5.8312e-02,2.10359
5.8344e-02,2.1325
5.8376e-02,2.14172
5.8408e-02,2.13156
5.8440e-02,2.12844
5.8472e-02,2.0775
5.8504e-02,2.0525
5.8536e-02,2.01266
5.8568e-02,1.97578
5.8600e-02,1.93219
5.8632e-02,1.87359
5.8664e-02,1.79609
5.8696e-02,1.71641
5.8728e-02,1.64141
5.8760e-02,1.55469
5.8792e-02,1.46906
5.8824e-02,1.39906
5.8856e-02,1.31344
5.8888e-02,1.23531
5.8920e-02,1.17297
5.8952e-02,1.11031
5.8984e-02,1.04859
5.9016e-02,0.993594
5.9048e-02,0.936094
5.9080e-02,0.896875
5.9112e-02,0.86
5.9144e-02,0.835625
5.9176e-02,0.823437
5.9208e-02,0.815937
5.9240e-02,0.795469
5.9272e-02,0.815156
5.9304e-02,0.839219
5.9336e-02,0.852969
5.9368e-02,0.862969
5.9400e-02,0.873438
5.9432e-02,0.904688
5.9464e-02,0.939687
5.9496e-02,0.97625
5.9528e-02,1.00875
5.9560e-02,1.06219
5.9592e-02,1.1425
5.9624e-02,1.21281
5.9656e-02,1.28828
5.9688e-02,1.37734
5.9720e-02,1.47156
5.9752e-02,1.59219
5.9784e-02,1.72313
5.9816e-02,1.82609
5.9848e-02,1.95938
5.9880e-02,2.07953
5.9912e-02,2.20828
5.9944e-02,2.32578
5.9976e-02,2.41625
6.0008e-02,2.51203
6.0040e-02,2.59953
6.0072e-02,2.66
6.0104e-02,2.7175
6.0136e-02,2.75219
6.0168e-02,2.76578
6.0200e-02,2.77359
6.0232e-02,2.7575
6.0264e-02,2.73672
6.0296e-02,2.67953
6.0328e-02,2.63703
6.0360e-02,2.57797
6.0392e-02,2.50203
6.0424e-02,2.40703
6.0456e-02,2.32375
6.0488e-02,2.21844
6.0520e-02,2.08703
6.0552e-02,1.94156
6.0584e-02,1.82141
6.0616e-02,1.69219
6.0648e-02,1.56984
6.0680e-02,1.43625
6.0712e-02,1.30875
6.0744e-02,1.17953
6.0776e-02,1.06547
6.0808e-02,0.959687
6.0840e-02,0.858437
6.0872e-02,0.77625
6.0904e-02,0.709844
6.0936e-02,0.647656
6.0968e-02,0.59
6.1000e-02,0.555469
6.1032e-02,0.5275
6.1064e-02,0.505937
6.1096e-02,0.498906
6.1128e-02,0.497031
6.1160e-02,0.474063
6.1192e-02,0.47875
6.1224e-02,0.484219
6.1256e-02,0.490469
6.1288e-02,0.509375
6.1320e-02,0.513125
6.1352e-02,0.523594
6.1384e-02,0.55375
6.1416e-02,0.566406
6.1448e-02,0.590469
6.1480e-02,0.631719
6.1512e-02,0.673906
6.1544e-02,0.71625
6.1576e-02,0.760469
6.1608e-02,0.814375
6.1640e-02,0.871406
6.1672e-02,0.911563
6.1704e-02,0.974844
6.1736e-02,1.02375
6.1768e-02,1.07203
6.1800e-02,1.10859
6.1832e-02,1.15359
6.1864e-02,1.21469
6.1896e-02,1.26531
6.1928e-02,1.29094
6.1960e-02,1.31531
6.1992e-02,1.33703
6.2024e-02,1.33656
6.2056e-02,1.33891
6.2088e-02,1.33625
6.2120e-02,1.32125
6.2152e-02,1.31594
6.2184e-02,1.28625
6.2216e-02,1.25641
6.2248e-02,1.23047
6.2280e-02,1.18891
6.2312e-02,1.14594
6.2344e-02,1.095
6.2376e-02,1.04344
6.2408e-02,0.991875
6.2440e-02,0.924688
6.2472e-02,0.857031
6.2504e-02,0.798594
6.2536e-02,0.744531
6.2568e-02,0.684687
6.2600e-02,0.625
6.2632e-02,0.583594
6.2664e-02,0.527656
6.2696e-02,0.489219
6.2728e-02,0.452187
6.2760e-02,0.409687
6.2792e-02,0.378281
6.2824e-02,0.353281
6.2856e-02,0.332812
6.2888e-02,0.32
6.2920e-02,0.300156
6.2952e-02,0.292344
6.2984e-02,0.281406
6.3016e-02,0.262656
6.3048e-02,0.261563
6.3080e-02,0.262656
6.3112e-02,0.261406
6.3144e-02,0.264063
6.3176e-02,0.263281
6.3208e-02,0.267031
6.3240e-02,0.269531
6.3272e-02,0.270469
6.3304e-02,0.28375
6.3336e-02,0.293594
6.3368e-02,0.305781
6.3400e-02,0.314687
6.3432e-02,0.340313
6.3464e-02,0.35125
6.3496e-02,0.366094
6.3528e-02,0.381406
6.3560e-02,0.397031
6.3592e-02,0.413281
6.3624e-02,0.424062
6.3656e-02,0.431406
6.3688e-02,0.448906
6.3720e-02,0.470937
6.3752e-02,0.47875
6.3784e-02,0.483437
6.3816e-02,0.491719
6.3848e-02,0.49375
6.3880e-02,0.5
6.3912e-02,0.497031
6.3944e-02,0.505781
6.3976e-02,0.500938
6.4008e-02,0.500469
6.4040e-02,0.498594
6.4072e-02,0.48
6.4104e-02,0.463594
6.4136e-02,0.45875
6.4168e-02,0.44875
6.4200e-02,0.43125
6.4232e-02,0.411719
6.4264e-02,0.391719
6.4296e-02,0.377187
6.4328e-02,0.35625
6.4360e-02,0.332969
6.4392e-02,0.308906
6.4424e-02,0.296875
6.4456e-02,0.284687
6.4488e-02,0.263125
6.4520e-02,0.250625
6.4552e-02,0.2375
6.4584e-02,0.217812
6.4616e-02,0.2125
6.4648e-02,0.196562
6.4680e-02,0.18
6.4712e-02,0.180312
6.4744e-02,0.179219
6.4776e-02,0.168438
6.4808e-02,0.157031
6.4840e-02,0.158906
6.4872e-02,0.140937
6.4904e-02,0.141563
6.4936e-02,0.141563
6.4968e-02,0.140156
6.5000e-02,0.140937
6.5032e-02,0.141406
6.5064e-02,0.140937
6.5096e-02,0.140937
6.5128e-02,0.140781
6.5160e-02,0.140469
6.5192e-02,0.141094
6.5224e-02,0.140781
6.5256e-02,0.14125
6.5288e-02,0.140469
6.5320e-02,0.140312
6.5352e-02,0.140156
6.5384e-02,0.141094
6.5416e-02,0.141094
6.5448e-02,0.142187
6.5480e-02,0.14125
6.5512e-02,0.141563
6.5544e-02,0.141563
6.5576e-02,0.142656
6.5608e-02,0.145312
6.5640e-02,0.146406
6.5672e-02,0.147656
6.5704e-02,0.149062
6.5736e-02,0.155156
6.5768e-02,0.162344
6.5800e-02,0.171094
6.5832e-02,0.183281
6.5864e-02,0.19625
6.5896e-02,0.208125
6.5928e-02,0.223906
6.5960e-02,0.24875
6.5992e-02,0.266094
6.6024e-02,0.285
6.6056e-02,0.305
6.6088e-02,0.328906
6.6120e-02,0.351875
6.6152e-02,0.380625
6.6184e-02,0.397813
6.6216e-02,0.427188
6.6248e-02,0.450469
6.6280e-02,0.482031
6.6312e-02,0.509688
6.6344e-02,0.53625
6.6376e-02,0.546406
6.6408e-02,0.562656
6.6440e-02,0.583125
6.6472e-02,0.593281
6.6504e-02,0.60375
6.6536e-02,0.609062
6.6568e-02,0.607813
6.6600e-02,0.607969
6.6632e-02,0.608906
6.6664e-02,0.605156
6.6696e-02,0.600938
6.6728e-02,0.585
6.6760e-02,0.580781
6.6792e-02,0.567656
6.6824e-02,0.549688
6.6856e-02,0.528594
6.6888e-02,0.505
6.6920e-02,0.490625
6.6952e-02,0.474531
6.6984e-02,0.453594
6.7016e-02,0.43625
6.7048e-02,0.413281
6.7080e-02,0.393281
6.7112e-02,0.365
6.7144e-02,0.352812
6.7176e-02,0.34125
6.7208e-02,0.340156
6.7240e-02,0.320625
6.7272e-02,0.308125
6.7304e-02,0.3075
6.7336e-02,0.302188
6.7368e-02,0.306563
6.7400e-02,0.308594
6.7432e-02,0.314375
6.7464e-02,0.315937
6.7496e-02,0.322812
6.7528e-02,0.340937
6.7560e-02,0.352812
6.7592e-02,0.385
6.7624e-02,0.404375
6.7656e-02,0.425469
6.7688e-02,0.452969
6.7720e-02,0.471875
6.7752e-02,0.512344
6.7784e-02,0.550156
6.7816e-02,0.583125
6.7848e-02,0.63625
6.7880e-02,0.676406
6.7912e-02,0.736719
6.7944e-02,0.790469
6.7976e-02,0.833125
6.8008e-02,0.879219
6.8040e-02,0.934687
6.8072e-02,0.990625
6.8104e-02,1.03484
6.8136e-02,1.06328
6.8168e-02,1.08422
6.8200e-02,1.145
6.8232e-02,1.17359
6.8264e-02,1.16516
6.8296e-02,1.1875
6.8328e-02,1.19375
6.8360e-02,1.18688
6.8392e-02,1.17297
6.8424e-02,1.16453
6.8456e-02,1.15719
6.8488e-02,1.14594
6.8520e-02,1.14297
6.8552e-02,1.10125
6.8584e-02,1.08891
6.8616e-02,1.04891
6.8648e-02,1.01687
6.8680e-02,0.979062
6.8712e-02,0.951719
6.8744e-02,0.924844
6.8776e-02,0.888906
6.8808e-02,0.846094
6.8840e-02,0.800156
6.8872e-02,0.779062
6.8904e-02,0.730938
6.8936e-02,0.68625
6.8968e-02,0.657812
6.9000e-02,0.627813
6.9032e-02,0.597344
6.9064e-02,0.583125
6.9096e-02,0.5675
6.9128e-02,0.548281
6.9160e-02,0.555469
6.9192e-02,0.551562
6.9224e-02,0.548281
6.9256e-02,0.558906
6.9288e-02,0.562344
6.9320e-02,0.583594
6.9352e-02,0.612969
6.9384e-02,0.637656
6.9416e-02,0.673125
6.9448e-02,0.727031
6.9480e-02,0.787656
6.9512e-02,0.862969
6.9544e-02,0.936094
6.9576e-02,1.01938
6.9608e-02,1.11641
6.9640e-02,1.2075
6.9672e-02,1.32125
6.9704e-02,1.45484
6.9736e-02,1.59016
6.9768e-02,1.72812
6.9800e-02,1.84719
6.9832e-02,2.00734
6.9864e-02,2.13484
6.9896e-02,2.28344
6.9928e-02,2.39859
6.9960e-02,2.49656
6.9992e-02,2.57844
7.0024e-02,2.68672
7.0056e-02,2.74531
7.0088e-02,2.78328
7.0120e-02,2.79969
7.0152e-02,2.81266
7.0184e-02,2.81922
7.0216e-02,2.82187
7.0248e-02,2.81016
7.0280e-02,2.77266
7.0312e-02,2.72328
7.0344e-02,2.655
7.0376e-02,2.60375
7.0408e-02,2.51687
7.0440e-02,2.40313
7.0472e-02,2.31875
7.0504e-02,2.20609
7.0536e-02,2.08078
7.0568e-02,1.94734
7.0600e-02,1.81766
7.0632e-02,1.68375
7.0664e-02,1.54547
7.0696e-02,1.42484
7.0728e-02,1.30156
7.0760e-02,1.19703
7.0792e-02,1.08031
7.0824e-02,0.981719
7.0856e-02,0.89
7.0888e-02,0.821562
7.0920e-02,0.771719
7.0952e-02,0.726406
7.0984e-02,0.677656
7.1016e-02,0.653437
7.1048e-02,0.618906
7.1080e-02,0.615469
7.1112e-02,0.603906
7.1144e-02,0.609844
7.1176e-02,0.628125
7.1208e-02,0.649062
7.1240e-02,0.680937
7.1272e-02,0.716094
7.1304e-02,0.756562
7.1336e-02,0.819219
7.1368e-02,0.886406
7.1400e-02,0.963125
7.1432e-02,1.04937
7.1464e-02,1.12359
7.1496e-02,1.21969
7.1528e-02,1.31312
7.1560e-02,1.39531
7.1592e-02,1.48562
7.1624e-02,1.58125
7.1656e-02,1.66422
7.1688e-02,1.73859
7.1720e-02,1.82531
7.1752e-02,1.86234
7.1784e-02,1.91625
7.1816e-02,1.94109
7.1848e-02,1.98516
7.1880e-02,2.02406
7.1912e-02,2.03875
7.1944e-02,2.03094
7.1976e-02,2.03141
7.2008e-02,2.00891
7.2040e-02,1.97828
7.2072e-02,1.96031
7.2104e-02,1.93594
7.2136e-02,1.89875
7.2168e-02,1.85047
7.2200e-02,1.80313
7.2232e-02,1.74187
7.2264e-02,1.68375
7.2296e-02,1.60547
7.2328e-02,1.53719
7.2360e-02,1.45359
7.2392e-02,1.35875
7.2424e-02,1.28156
7.2456e-02,1.20047
7.2488e-02,1.16016
7.2520e-02,1.13437
7.2552e-02,1.09922
7.2584e-02,1.06547
7.2616e-02,1.04078
7.2648e-02,1.02609
7.2680e-02,1.01938
7.2712e-02,1.02531
7.2744e-02,1.03563
7.2776e-02,1.04797
7.2808e-02,1.05922
7.2840e-02,1.05828
7.2872e-02,1.05484
7.2904e-02,1.08125
7.2936e-02,1.11547
7.2968e-02,1.15375
7.3000e-02,1.19156
7.3032e-02,1.25937
7.3064e-02,1.33141
7.3096e-02,1.40297
7.3128e-02,1.51125
7.3160e-02,1.62187
7.3192e-02,1.73234
7.3224e-02,1.84484
7.3256e-02,1.96109
7.3288e-02,2.08375
7.3320e-02,2.19734
7.3352e-02,2.33391
7.3384e-02,2.45578
7.3416e-02,2.58563
7.3448e-02,2.70703
7.3480e-02,2.81547
7.3512e-02,2.86156
7.3544e-02,2.93328
7.3576e-02,2.98313
7.3608e-02,3.01766
7.3640e-02,3.06359
7.3672e-02,3.09234
7.3704e-02,3.095
7.3736e-02,3.07484
7.3768e-02,3.04781
7.3800e-02,3.01297
7.3832e-02,2.97125
7.3864e-02,2.89656
7.3896e-02,2.80875
7.3928e-02,2.72797
7.3960e-02,2.63969
7.3992e-02,2.52156
7.4024e-02,2.40313
7.4056e-02,2.28281
7.4088e-02,2.14312
7.4120e-02,2.01344
7.4152e-02,1.87141
7.4184e-02,1.75297
7.4216e-02,1.62078
7.4248e-02,1.49969
7.4280e-02,1.38969
7.4312e-02,1.27625
7.4344e-02,1.18125
7.4376e-02,1.09313
7.4408e-02,1.01562
7.4440e-02,0.939687
7.4472e-02,0.886094
7.4504e-02,0.851094
7.4536e-02,0.8175
7.4568e-02,0.786875
7.4600e-02,0.779219
7.4632e-02,0.770312
7.4664e-02,0.780937
7.4696e-02,0.770781
7.4728e-02,0.783281
7.4760e-02,0.810625
7.4792e-02,0.829063
7.4824e-02,0.862344
7.4856e-02,0.900937
7.4888e-02,0.930781
7.4920e-02,0.965781
7.4952e-02,1.03422
7.4984e-02,1.11344
7.5016e-02,1.18078
7.5048e-02,1.26187
7.5080e-02,1.33562
7.5112e-02,1.42844
7.5144e-02,1.51391
7.5176e-02,1.58484
7.5208e-02,1.6725
7.5240e-02,1.76297
7.5272e-02,1.82516
7.5304e-02,1.85812
7.5336e-02,1.87672
7.5368e-02,1.92359
7.5400e-02,1.98094
7.5432e-02,1.99172
7.5464e-02,2.00734
7.5496e-02,2.00891
7.5528e-02,2.00438
7.5560e-02,1.99063
7.5592e-02,1.94719
7.5624e-02,1.92641
7.5656e-02,1.90109
7.5688e-02,1.86906
7.5720e-02,1.8175
7.5752e-02,1.76578
7.5784e-02,1.70734
7.5816e-02,1.64703
7.5848e-02,1.57313
7.5880e-02,1.50672
7.5912e-02,1.44375
7.5944e-02,1.35953
7.5976e-02,1.28281
7.6008e-02,1.19047
7.6040e-02,1.12297
7.6072e-02,1.05609
7.6104e-02,1.00516
7.6136e-02,0.963437
7.6168e-02,0.917344
7.6200e-02,0.889844
7.6232e-02,0.858125
7.6264e-02,0.830469
7.6296e-02,0.823437
7.6328e-02,0.820781
7.6360e-02,0.824219
7.6392e-02,0.843125
7.6424e-02,0.875469
7.6456e-02,0.910937
7.6488e-02,0.955625
7.6520e-02,1.0075
7.6552e-02,1.07391
7.6584e-02,1.14156
7.6616e-02,1.20187
7.6648e-02,1.27219
7.6680e-02,1.35469
7.6712e-02,1.45016
7.6744e-02,1.54797
7.6776e-02,1.64906
7.6808e-02,1.76422
7.6840e-02,1.88031
7.6872e-02,1.99891
7.6904e-02,2.09875
7.6936e-02,2.1925
7.6968e-02,2.31813
7.7000e-02,2.40594
7.7032e-02,2.47172
7.7064e-02,2.52562
7.7096e-02,2.57484
7.7128e-02,2.60453
7.7160e-02,2.62688
7.7192e-02,2.61625
7.7224e-02,2.60453
7.7256e-02,2.57641
7.7288e-02,2.54109
7.7320e-02,2.49297
7.7352e-02,2.42188
7.7384e-02,2.36969
7.7416e-02,2.30266
7.7448e-02,2.22516
7.7480e-02,2.13391
7.7512e-02,2.06703
7.7544e-02,1.93875
7.7576e-02,1.80547
7.7608e-02,1.68812
7.7640e-02,1.54781
7.7672e-02,1.43328
7.7704e-02,1.30313
7.7736e-02,1.18625
7.7768e-02,1.06828
7.7800e-02,0.971563
7.7832e-02,0.875469
7.7864e-02,0.792813
7.7896e-02,0.721719
7.7928e-02,0.664219
7.7960e-02,0.616406
7.7992e-02,0.573125
7.8024e-02,0.537187
7.8056e-02,0.524844
7.8088e-02,0.509844
7.8120e-02,0.500312
7.8152e-02,0.504062
7.8184e-02,0.5075
7.8216e-02,0.512344
7.8248e-02,0.517812
7.8280e-02,0.542187
7.8312e-02,0.564375
7.8344e-02,0.587344
7.8376e-02,0.609844
7.8408e-02,0.660625
7.8440e-02,0.697188
7.8472e-02,0.742656
7.8504e-02,0.788906
7.8536e-02,0.852187
7.8568e-02,0.912344
7.8600e-02,0.971719
7.8632e-02,1.02281
7.8664e-02,1.07094
7.8696e-02,1.12062
7.8728e-02,1.1775
7.8760e-02,1.19641
7.8792e-02,1.21344
7.8824e-02,1.23531
7.8856e-02,1.24891
7.8888e-02,1.25813
7.8920e-02,1.26234
7.8952e-02,1.24406
7.8984e-02,1.24938
7.9016e-02,1.23547
7.9048e-02,1.22797
7.9080e-02,1.21797
7.9112e-02,1.19531
7.9144e-02,1.15859
7.9176e-02,1.12875
7.9208e-02,1.08734
7.9240e-02,1.04719
7.9272e-02,0.999219
7.9304e-02,0.944688
7.9336e-02,0.904844
7.9368e-02,0.844375
7.9400e-02,0.78375
7.9432e-02,0.735625
7.9464e-02,0.679063
7.9496e-02,0.616875
7.9528e-02,0.558906
7.9560e-02,0.517344
7.9592e-02,0.469531
7.9624e-02,0.436562
7.9656e-02,0.405
7.9688e-02,0.373906
7.9720e-02,0.345625
7.9752e-02,0.338281
7.9784e-02,0.318906
7.9816e-02,0.299688
7.9848e-02,0.298594
7.9880e-02,0.285469
7.9912e-02,0.272187
7.9944e-02,0.260781
7.9976e-02,0.262344
8.0008e-02,0.271875
8.0040e-02,0.274375
8.0072e-02,0.278906
8.0104e-02,0.281875
8.0136e-02,0.293125
8.0168e-02,0.306406
8.0200e-02,0.311406
8.0232e-02,0.334062
8.0264e-02,0.340469
8.0296e-02,0.350781
8.0328e-02,0.365312
8.0360e-02,0.382656
8.0392e-02,0.400469
8.0424e-02,0.419531
8.0456e-02,0.420469
8.0488e-02,0.449531
8.0520e-02,0.457656
8.0552e-02,0.464531
8.0584e-02,0.485937
8.0616e-02,0.484219
8.0648e-02,0.486562
8.0680e-02,0.480625
8.0712e-02,0.489219
8.0744e-02,0.478594
8.0776e-02,0.478438
8.0808e-02,0.469375
8.0840e-02,0.458906
8.0872e-02,0.456094
8.0904e-02,0.450312
8.0936e-02,0.439219
8.0968e-02,0.417969
8.1000e-02,0.412031
8.1032e-02,0.404688
8.1064e-02,0.390312
8.1096e-02,0.370156
8.1128e-02,0.35625
8.1160e-02,0.338906
8.1192e-02,0.315313
8.1224e-02,0.298281
8.1256e-02,0.276562
8.1288e-02,0.260781
8.1320e-02,0.251562
8.1352e-02,0.227812
8.1384e-02,0.21875
8.1416e-02,0.204531
8.1448e-02,0.201094
8.1480e-02,0.182656
8.1512e-02,0.181094
8.1544e-02,0.180469
8.1576e-02,0.179063
8.1608e-02,0.162344
8.1640e-02,0.155
8.1672e-02,0.147344
8.1704e-02,0.140469
8.1736e-02,0.144844
8.1768e-02,0.142187
8.1800e-02,0.140937
8.1832e-02,0.141563
8.1864e-02,0.140937
8.1896e-02,0.1425
8.1928e-02,0.140469
8.1960e-02,0.1425
8.1992e-02,0.141406
8.2024e-02,0.140937
8.2056e-02,0.141094
8.2088e-02,0.141563
8.2120e-02,0.140781
8.2152e-02,0.140937
8.2184e-02,0.14125
8.2216e-02,0.140937
8.2248e-02,0.140469
8.2280e-02,0.141406
8.2312e-02,0.144844
8.2344e-02,0.147969
8.2376e-02,0.148594
8.2408e-02,0.153906
8.2440e-02,0.164687
8.2472e-02,0.1725
8.2504e-02,0.188906
8.2536e-02,0.201406
8.2568e-02,0.216875
8.2600e-02,0.22125
8.2632e-02,0.240625
8.2664e-02,0.259688
8.2696e-02,0.270156
8.2728e-02,0.288438
8.2760e-02,0.310312
8.2792e-02,0.343437
8.2824e-02,0.367969
8.2856e-02,0.389063
8.2888e-02,0.414375
8.2920e-02,0.448125
8.2952e-02,0.470937
8.2984e-02,0.499375
8.3016e-02,0.5175
8.3048e-02,0.539219
8.3080e-02,0.559219
8.3112e-02,0.569844
8.3144e-02,0.574688
8.3176e-02,0.59
8.3208e-02,0.589062
8.3240e-02,0.589531
8.3272e-02,0.584219
8.3304e-02,0.586719
8.3336e-02,0.585625
8.3368e-02,0.580312
8.3400e-02,0.573437
8.3432e-02,0.548281
8.3464e-02,0.542031
8.3496e-02,0.538438
8.3528e-02,0.500469
8.3560e-02,0.497031
8.3592e-02,0.490156
8.3624e-02,0.460156
8.3656e-02,0.444844
8.3688e-02,0.429219
8.3720e-02,0.419687
8.3752e-02,0.398906
8.3784e-02,0.379531
8.3816e-02,0.364844
8.3848e-02,0.342188
8.3880e-02,0.336094
8.3912e-02,0.33625
8.3944e-02,0.324688
8.3976e-02,0.317187
8.4008e-02,0.312812
8.4040e-02,0.315781
8.4072e-02,0.32125
8.4104e-02,0.339219
8.4136e-02,0.344844
8.4168e-02,0.359375
8.4200e-02,0.385156
8.4232e-02,0.407344
8.4264e-02,0.429531
8.4296e-02,0.467188
8.4328e-02,0.491719
8.4360e-02,0.53
8.4392e-02,0.575625
8.4424e-02,0.619063
8.4456e-02,0.665781
8.4488e-02,0.70875
8.4520e-02,0.739375
8.4552e-02,0.799219
8.4584e-02,0.852656
8.4616e-02,0.91375
8.4648e-02,0.948125
8.4680e-02,0.985
8.4712e-02,1.02391
8.4744e-02,1.04578
8.4776e-02,1.06766
8.4808e-02,1.08859
8.4840e-02,1.10766
8.4872e-02,1.12156
8.4904e-02,1.13
8.4936e-02,1.13125
8.4968e-02,1.12547
8.5000e-02,1.10672
8.5032e-02,1.11062
8.5064e-02,1.11234
8.5096e-02,1.10453
8.5128e-02,1.09031
8.5160e-02,1.06078
8.5192e-02,1.04922
8.5224e-02,1.01875
8.5256e-02,0.993281
8.5288e-02,0.9725
8.5320e-02,0.924219
8.5352e-02,0.874219
8.5384e-02,0.834062
8.5416e-02,0.798906
8.5448e-02,0.756406
8.5480e-02,0.715937
8.5512e-02,0.689844
8.5544e-02,0.658437
8.5576e-02,0.620938
8.5608e-02,0.6125
8.5640e-02,0.587031
8.5672e-02,0.584844
8.5704e-02,0.586875
8.5736e-02,0.591562
8.5768e-02,0.582812
8.5800e-02,0.592031
8.5832e-02,0.596563
8.5864e-02,0.623438
8.5896e-02,0.652188
8.5928e-02,0.691406
8.5960e-02,0.7425
8.5992e-02,0.792344
8.6024e-02,0.864531
8.6056e-02,0.933906
8.6088e-02,1.02422
8.6120e-02,1.12109
8.6152e-02,1.22297
8.6184e-02,1.3225
8.6216e-02,1.44437
8.6248e-02,1.57313
8.6280e-02,1.69297
8.6312e-02,1.82172
8.6344e-02,1.95375
8.6376e-02,2.08984
8.6408e-02,2.18781
8.6440e-02,2.29188
8.6472e-02,2.39391
8.6504e-02,2.48313
8.6536e-02,2.56625
8.6568e-02,2.61922
8.6600e-02,2.66797
8.6632e-02,2.68578
8.6664e-02,2.70016
8.6696e-02,2.68109
8.6728e-02,2.67563
8.6760e-02,2.64609
8.6792e-02,2.61688
8.6824e-02,2.58641
8.6856e-02,2.51781
8.6888e-02,2.46
8.6920e-02,2.38234
8.6952e-02,2.29422
8.6984e-02,2.20609
8.7016e-02,2.11094
8.7048e-02,1.9975
8.7080e-02,1.87391
8.7112e-02,1.75453
8.7144e-02,1.65
8.7176e-02,1.52672
8.7208e-02,1.40156
8.7240e-02,1.28484
8.7272e-02,1.17391
8.7304e-02,1.07109
8.7336e-02,0.974219
8.7368e-02,0.901094
8.7400e-02,0.833281
8.7432e-02,0.766563
8.7464e-02,0.726094
8.7496e-02,0.698281
8.7528e-02,0.691719
8.7560e-02,0.665938
8.7592e-02,0.660156
8.7624e-02,0.657344
8.7656e-02,0.677344
8.7688e-02,0.701094
8.7720e-02,0.744219
8.7752e-02,0.79125
8.7784e-02,0.833594
8.7816e-02,0.896562
8.7848e-02,0.970469
8.7880e-02,1.04547
8.7912e-02,1.12828
8.7944e-02,1.22375
8.7976e-02,1.31766
8.8008e-02,1.41375
8.8040e-02,1.47656
8.8072e-02,1.55625
8.8104e-02,1.6225
8.8136e-02,1.68969
8.8168e-02,1.75641
8.8200e-02,1.81625
8.8232e-02,1.84953
8.8264e-02,1.88406
8.8296e-02,1.89688
8.8328e-02,1.92687
8.8360e-02,1.94406
8.8392e-02,1.94953
8.8424e-02,1.95391
8.8456e-02,1.92563
8.8488e-02,1.91328
8.8520e-02,1.89594
8.8552e-02,1.87906
8.8584e-02,1.83953
8.8616e-02,1.78391
8.8648e-02,1.72297
8.8680e-02,1.67266
8.8712e-02,1.6025
8.8744e-02,1.55172
8.8776e-02,1.48859
8.8808e-02,1.41797
8.8840e-02,1.36047
8.8872e-02,1.28656
8.8904e-02,1.23734
8.8936e-02,1.1925
8.8968e-02,1.15109
8.9000e-02,1.09828
8.9032e-02,1.09141
8.9064e-02,1.05984
8.9096e-02,1.06172
8.9128e-02,1.06234
8.9160e-02,1.05984
8.9192e-02,1.06672
8.9224e-02,1.07063
8.9256e-02,1.09281
8.9288e-02,1.11297
8.9320e-02,1.14422
8.9352e-02,1.17594
8.9384e-02,1.20797
8.9416e-02,1.26641
8.9448e-02,1.34203
8.9480e-02,1.435
8.9512e-02,1.53594
8.9544e-02,1.64969
8.9576e-02,1.75234
8.9608e-02,1.86281
8.9640e-02,1.96359
8.9672e-02,2.10109
8.9704e-02,2.21047
8.9736e-02,2.31484
8.9768e-02,2.43562
8.9800e-02,2.545
8.9832e-02,2.65266
8.9864e-02,2.74656
8.9896e-02,2.80234
8.9928e-02,2.835
8.9960e-02,2.88
8.9992e-02,2.90984
9.0024e-02,2.92031
9.0056e-02,2.93281
9.0088e-02,2.92266
9.0120e-02,2.90141
9.0152e-02,2.87297
9.0184e-02,2.83766
9.0216e-02,2.81562
9.0248e-02,2.76859
9.0280e-02,2.69906
9.0312e-02,2.62797
9.0344e-02,2.53688
9.0376e-02,2.44953
9.0408e-02,2.33594
9.0440e-02,2.22547
9.0472e-02,2.11547
9.0504e-02,1.98953
9.0536e-02,1.85359
9.0568e-02,1.71031
9.0600e-02,1.5875
9.0632e-02,1.46719
9.0664e-02,1.35531
9.0696e-02,1.25031
9.0728e-02,1.15437
9.0760e-02,1.06516
9.0792e-02,0.992969
9.0824e-02,0.923125
9.0856e-02,0.865156
9.0888e-02,0.841562
9.0920e-02,0.818594
9.0952e-02,0.817187
9.0984e-02,0.794062
9.1016e-02,0.792813
9.1048e-02,0.815625
9.1080e-02,0.8375
9.1112e-02,0.867344
9.1144e-02,0.885
9.1176e-02,0.91875
9.1208e-02,0.968125
9.1240e-02,0.992188
9.1272e-02,1.05734
9.1304e-02,1.13406
9.1336e-02,1.20078
9.1368e-02,1.28313
9.1400e-02,1.35719
9.1432e-02,1.42016
9.1464e-02,1.48969
9.1496e-02,1.56625
9.1528e-02,1.6375
9.1560e-02,1.70547
9.1592e-02,1.76078
9.1624e-02,1.80375
9.1656e-02,1.84453
9.1688e-02,1.8725
9.1720e-02,1.90453
9.1752e-02,1.90344
9.1784e-02,1.90734
9.1816e-02,1.90219
9.1848e-02,1.91531
9.1880e-02,1.90969
9.1912e-02,1.90344
9.1944e-02,1.87562
9.1976e-02,1.84875
9.2008e-02,1.80063
9.2040e-02,1.75594
9.2072e-02,1.72625
9.2104e-02,1.67937
9.2136e-02,1.62109
9.2168e-02,1.55844
9.2200e-02,1.48469
9.2232e-02,1.41969
9.2264e-02,1.35359
9.2296e-02,1.28969
9.2328e-02,1.21203
9.2360e-02,1.15391
9.2392e-02,1.08953
9.2424e-02,1.03063
9.2456e-02,0.971094
9.2488e-02,0.924688
9.2520e-02,0.897187
9.2552e-02,0.877031
9.2584e-02,0.864844
9.2616e-02,0.870156
9.2648e-02,0.873125
9.2680e-02,0.904219
9.2712e-02,0.930469
9.2744e-02,0.973906
9.2776e-02,1.01562
9.2808e-02,1.07609
9.2840e-02,1.13219
9.2872e-02,1.18266
9.2904e-02,1.25891
9.2936e-02,1.34391
9.2968e-02,1.41094
9.3000e-02,1.51922
9.3032e-02,1.59453
9.3064e-02,1.69641
9.3096e-02,1.81297
9.3128e-02,1.92219
9.3160e-02,2.01906
9.3192e-02,2.10125
9.3224e-02,2.20094
9.3256e-02,2.28641
9.3288e-02,2.36656
9.3320e-02,2.42375
9.3352e-02,2.48141
9.3384e-02,2.52047
9.3416e-02,2.50391
9.3448e-02,2.49172
9.3480e-02,2.45297
9.3512e-02,2.44828
9.3544e-02,2.41328
9.3576e-02,2.38656
9.3608e-02,2.33656
9.3640e-02,2.30953
9.3672e-02,2.23641
9.3704e-02,2.17906
9.3736e-02,2.09703
9.3768e-02,2.01781
9.3800e-02,1.91094
9.3832e-02,1.80906
9.3864e-02,1.67672
9.3896e-02,1.56781
9.3928e-02,1.45891
9.3960e-02,1.34844
9.3992e-02,1.23906
9.4024e-02,1.12984
9.4056e-02,1.0275
9.4088e-02,0.934687
9.4120e-02,0.856875
9.4152e-02,0.779844
9.4184e-02,0.715156
9.4216e-02,0.659375
9.4248e-02,0.617344
9.4280e-02,0.585625
9.4312e-02,0.572344
9.4344e-02,0.547031
9.4376e-02,0.543594
9.4408e-02,0.528125
9.4440e-02,0.52625
9.4472e-02,0.545
9.4504e-02,0.554531
9.4536e-02,0.58
9.4568e-02,0.599219
9.4600e-02,0.634375
9.4632e-02,0.669531
9.4664e-02,0.71125
9.4696e-02,0.754062
9.4728e-02,0.805469
9.4760e-02,0.845156
9.4792e-02,0.891719
9.4824e-02,0.942031
9.4856e-02,0.990469
9.4888e-02,1.02078
9.4920e-02,1.06578
9.4952e-02,1.10828
9.4984e-02,1.13891
9.5016e-02,1.16984
9.5048e-02,1.19031
9.5080e-02,1.19531
9.5112e-02,1.19344
9.5144e-02,1.19375
9.5176e-02,1.19156
9.5208e-02,1.19016
9.5240e-02,1.19312
9.5272e-02,1.18516
9.5304e-02,1.17453
9.5336e-02,1.13969
9.5368e-02,1.12312
9.5400e-02,1.09
9.5432e-02,1.055
9.5464e-02,1.02641
9.5496e-02,0.979062
9.5528e-02,0.946406
9.5560e-02,0.894062
9.5592e-02,0.845312
9.5624e-02,0.780781
9.5656e-02,0.744063
9.5688e-02,0.688906
9.5720e-02,0.634531
9.5752e-02,0.582656
9.5784e-02,0.537344
9.5816e-02,0.493906
9.5848e-02,0.457812
9.5880e-02,0.425625
9.5912e-02,0.3975
9.5944e-02,0.3775
9.5976e-02,0.360937
9.6008e-02,0.334219
9.6040e-02,0.331875
9.6072e-02,0.300937
9.6104e-02,0.299062
9.6136e-02,0.299531
9.6168e-02,0.281562
9.6200e-02,0.271719
9.6232e-02,0.276562
9.6264e-02,0.288594
9.6296e-02,0.298281
9.6328e-02,0.306094
9.6360e-02,0.311094
9.6392e-02,0.315781
9.6424e-02,0.333594
9.6456e-02,0.345312
9.6488e-02,0.361406
9.6520e-02,0.37375
9.6552e-02,0.386406
9.6584e-02,0.399375
9.6616e-02,0.412812
9.6648e-02,0.422344
9.6680e-02,0.424219
9.6712e-02,0.446406
9.6744e-02,0.460938
9.6776e-02,0.464531
9.6808e-02,0.468437
9.6840e-02,0.465625
9.6872e-02,0.473125
9.6904e-02,0.467969
9.6936e-02,0.461094
9.6968e-02,0.462344
9.7000e-02,0.461719
9.7032e-02,0.461875
9.7064e-02,0.460469
9.7096e-02,0.452969
9.7128e-02,0.423906
9.7160e-02,0.418906
9.7192e-02,0.408594
9.7224e-02,0.385625
9.7256e-02,0.373906
9.7288e-02,0.363437
9.7320e-02,0.337187
9.7352e-02,0.324375
9.7384e-02,0.304063
9.7416e-02,0.286875
9.7448e-02,0.272813
9.7480e-02,0.25875
9.7512e-02,0.258281
9.7544e-02,0.236719
9.7576e-02,0.220937
9.7608e-02,0.220625
9.7640e-02,0.200156
9.7672e-02,0.183281
9.7704e-02,0.179844
9.7736e-02,0.179688
9.7768e-02,0.179688
9.7800e-02,0.1575
9.7832e-02,0.148906
9.7864e-02,0.152969
9.7896e-02,0.141875
9.7928e-02,0.14375
9.7960e-02,0.150313
9.7992e-02,0.147656
9.8024e-02,0.141094
9.8056e-02,0.143594
9.8088e-02,0.139844
9.8120e-02,0.140781
9.8152e-02,0.140156
9.8184e-02,0.140625
9.8216e-02,0.140312
9.8248e-02,0.146406
9.8280e-02,0.145
9.8312e-02,0.140781
9.8344e-02,0.14125
9.8376e-02,0.140156
9.8408e-02,0.140312
9.8440e-02,0.139844
9.8472e-02,0.141563
9.8504e-02,0.148594
9.8536e-02,0.155937
9.8568e-02,0.157188
9.8600e-02,0.175312
9.8632e-02,0.18375
9.8664e-02,0.188594
9.8696e-02,0.201563
9.8728e-02,0.220156
9.8760e-02,0.234062
9.8792e-02,0.257812
9.8824e-02,0.275625
9.8856e-02,0.289687
9.8888e-02,0.312187
9.8920e-02,0.331094
9.8952e-02,0.348594
9.8984e-02,0.378437
9.9016e-02,0.400625
9.9048e-02,0.432187
9.9080e-02,0.451406
9.9112e-02,0.473594
9.9144e-02,0.487344
9.9176e-02,0.514531
9.9208e-02,0.533437
9.9240e-02,0.541562
9.9272e-02,0.544375
9.9304e-02,0.555625
9.9336e-02,0.552812
9.9368e-02,0.5625
9.9400e-02,0.572188
9.9432e-02,0.571406
9.9464e-02,0.557812
9.9496e-02,0.55625
9.9528e-02,0.545937
9.9560e-02,0.546406
9.9592e-02,0.543594
9.9624e-02,0.537969
9.9656e-02,0.541875
9.9688e-02,0.525156
9.9720e-02,0.501562
9.9752e-02,0.480469
9.9784e-02,0.460469
9.9816e-02,0.453281
9.9848e-02,0.426719
9.9880e-02,0.423906
9.9912e-02,0.419687
9.9944e-02,0.398594
9.9976e-02,0.379687
1.0001e-01,0.374531
1.0004e-01,0.347344
1.0007e-01,0.340781
1.0010e-01,0.340937
1.0014e-01,0.343281
1.0017e-01,0.341562
1.0020e-01,0.343125
1.0023e-01,0.348437
1.0026e-01,0.366563
1.0030e-01,0.379844
1.0033e-01,0.399219
1.0036e-01,0.417813
1.0039e-01,0.443906
1.0042e-01,0.47875
1.0046e-01,0.515
1.0049e-01,0.539219
1.0052e-01,0.579063
1.0055e-01,0.616094
1.0058e-01,0.652188
1.0062e-01,0.704531
1.0065e-01,0.751875
1.0068e-01,0.788438
1.0071e-01,0.830156
1.0074e-01,0.868906
1.0078e-01,0.897656
1.0081e-01,0.935469
1.0084e-01,0.959062
1.0087e-01,0.991563
1.0090e-01,1.03156
1.0094e-01,1.05656
1.0097e-01,1.07234
1.0100e-01,1.08047
1.0103e-01,1.09344
1.0106e-01,1.10328
1.0110e-01,1.09109
1.0113e-01,1.09078
1.0116e-01,1.08391
1.0119e-01,1.1
1.0122e-01,1.07828
1.0126e-01,1.06359
1.0129e-01,1.03922
1.0132e-01,1.02797
1.0135e-01,1.02594
1.0138e-01,0.98625
1.0142e-01,0.968906
1.0145e-01,0.930156
1.0148e-01,0.895
1.0151e-01,0.874375
1.0154e-01,0.826406
1.0158e-01,0.791719
1.0161e-01,0.765312
1.0164e-01,0.739844
1.0167e-01,0.713594
1.0170e-01,0.675625
1.0174e-01,0.64875
1.0177e-01,0.625781
1.0180e-01,0.622656
1.0183e-01,0.611875
1.0186e-01,0.616719
1.0190e-01,0.625938
1.0193e-01,0.634688
1.0196e-01,0.644531
1.0199e-01,0.667187
1.0202e-01,0.697812
1.0206e-01,0.740781
1.0209e-01,0.790469
1.0212e-01,0.847031
1.0215e-01,0.909531
1.0218e-01,0.981562
1.0222e-01,1.07391
1.0225e-01,1.15187
1.0228e-01,1.25062
1.0231e-01,1.34844
1.0234e-01,1.46937
1.0238e-01,1.57406
1.0241e-01,1.69703
1.0244e-01,1.83156
1.0247e-01,1.93641
1.0250e-01,2.04844
1.0254e-01,2.14219
1.0257e-01,2.23359
1.0260e-01,2.31375
1.0263e-01,2.37312
1.0266e-01,2.42797
1.0270e-01,2.47156
1.0273e-01,2.51531
1.0276e-01,2.52594
1.0279e-01,2.53703
1.0282e-01,2.55047
1.0286e-01,2.55531
1.0289e-01,2.5475
1.0292e-01,2.51891
1.0295e-01,2.49078
1.0298e-01,2.45937
1.0302e-01,2.41016
1.0305e-01,2.33203
1.0308e-01,2.26219
1.0311e-01,2.20125
1.0314e-01,2.12922
1.0318e-01,2.04328
1.0321e-01,1.95406
1.0324e-01,1.84859
1.0327e-01,1.71406
1.0330e-01,1.6
1.0334e-01,1.49906
1.0337e-01,1.38187
1.0340e-01,1.27719
1.0343e-01,1.18859
1.0346e-01,1.09516
1.0350e-01,1.01391
1.0353e-01,0.940937
1.0356e-01,0.867031
1.0359e-01,0.816406
1.0362e-01,0.775469
1.0366e-01,0.753125
1.0369e-01,0.729844
1.0372e-01,0.717812
1.0375e-01,0.722187
1.0378e-01,0.7425
1.0382e-01,0.76125
1.0385e-01,0.801406
1.0388e-01,0.852344
1.0391e-01,0.891719
1.0394e-01,0.9375
1.0398e-01,0.999375
1.0401e-01,1.07469
1.0404e-01,1.13687
1.0407e-01,1.21594
1.0410e-01,1.28781
1.0414e-01,1.35031
1.0417e-01,1.42156
1.0420e-01,1.48672
1.0423e-01,1.56375
1.0426e-01,1.61344
1.0430e-01,1.66625
1.0433e-01,1.70891
1.0436e-01,1.74172
1.0439e-01,1.78187
1.0442e-01,1.80281
1.0446e-01,1.84094
1.0449e-01,1.84234
1.0452e-01,1.86672
1.0455e-01,1.8575
1.0458e-01,1.85234
1.0462e-01,1.83703
1.0465e-01,1.85875
1.0468e-01,1.83438
1.0471e-01,1.82109
1.0474e-01,1.77234
1.0478e-01,1.74375
1.0481e-01,1.70406
1.0484e-01,1.66469
1.0487e-01,1.62062
1.0490e-01,1.5925
1.0494e-01,1.56062
1.0497e-01,1.52188
1.0500e-01,1.50891
1.0503e-01,1.48641
1.0506e-01,1.4775
1.0510e-01,1.48188
1.0513e-01,1.47859
1.0516e-01,1.46484
1.0519e-01,1.46156
1.0522e-01,1.47234
1.0526e-01,1.47719
1.0529e-01,1.50469
1.0532e-01,1.51516
1.0535e-01,1.53141
1.0538e-01,1.56734
1.0542e-01,1.59172
1.0545e-01,1.62344
1.0548e-01,1.66047
1.0551e-01,1.69391
1.0554e-01,1.71906
1.0558e-01,1.75062
1.0561e-01,1.77016
1.0564e-01,1.81453
1.0567e-01,1.83859
1.0570e-01,1.84969
1.0574e-01,1.85953
1.0577e-01,1.83562
1.0580e-01,1.81203
1.0583e-01,1.77844
1.0586e-01,1.72266
1.0590e-01,1.665
1.0593e-01,1.58
1.0596e-01,1.48312
1.0599e-01,1.39406
1.0602e-01,1.28156
1.0606e-01,1.18375
1.0609e-01,1.08547
1.0612e-01,0.992031
1.0615e-01,0.921719
1.0618e-01,0.870156
1.0622e-01,0.866094
1.0625e-01,0.901875
1.0628e-01,0.994531
1.0631e-01,1.12641
1.0634e-01,1.29281
1.0638e-01,1.51172
1.0641e-01,1.72172
1.0644e-01,1.93766
1.0647e-01,2.11703
1.0650e-01,2.24875
1.0654e-01,2.31625
1.0657e-01,2.33219
1.0660e-01,2.23906
1.0663e-01,2.13359
1.0666e-01,1.96859
1.0670e-01,1.79281
1.0673e-01,1.56031
1.0676e-01,1.35469
1.0679e-01,1.16469
1.0682e-01,0.999062
1.0686e-01,0.897187
1.0689e-01,0.8375
1.0692e-01,0.824688
1.0695e-01,0.854687
1.0698e-01,0.904375
1.0702e-01,0.946562
1.0705e-01,1.01484
1.0708e-01,1.02531
1.0711e-01,1.01766
1.0714e-01,0.972656
1.0718e-01,0.909844
1.0721e-01,0.826406


