Model,MSO2024
Firmware Version,1.52

Point Format,Y
Horizontal Units,S
Horizontal Scale,0.01
Sample Interval,3.2e-05
Filter Frequency,2e+08
Record Length,3125
Gating,0.0% to 100.0%
Probe Attenuation,1
Vertical Units,V
Vertical Offset,0
Vertical Scale,0.5
Label,
TIME,CH1
7.2400e-03,0.317344
7.2720e-03,0.328359
7.3040e-03,0.329531
7.3360e-03,0.325156
7.3680e-03,0.32625
7.4000e-03,0.33
7.4320e-03,0.327969
7.4640e-03,0.326562
7.4960e-03,0.324219
7.5280e-03,0.328516
7.5600e-03,0.327578
7.5920e-03,0.317813
7.6240e-03,0.323906
7.6560e-03,0.319687
7.6880e-03,0.320625
7.7200e-03,0.316172
7.7520e-03,0.316719
7.7840e-03,0.310937
7.8160e-03,0.310547
7.8480e-03,0.317266
7.8800e-03,0.320469
7.9120e-03,0.312266
7.9440e-03,0.315859
7.9760e-03,0.315703
8.0080e-03,0.32
8.0400e-03,0.312969
8.0720e-03,0.308906
8.1040e-03,0.311016
8.1360e-03,0.31
8.1680e-03,0.310781
8.2000e-03,0.314609
8.2320e-03,0.311797
8.2640e-03,0.313281
8.2960e-03,0.313594
8.3280e-03,0.316484
8.3600e-03,0.315703
8.3920e-03,0.310078
8.4240e-03,0.306953
8.4560e-03,0.309141
8.4880e-03,0.30875
8.5200e-03,0.310625
8.5520e-03,0.31125
8.5840e-03,0.309297
8.6160e-03,0.316797
8.6480e-03,0.316406
8.6800e-03,0.318125
8.7120e-03,0.311562
8.7440e-03,0.316641
8.7760e-03,0.312188
8.8080e-03,0.306875
8.8400e-03,0.304609
8.8720e-03,0.3025
8.9040e-03,0.316484
8.9360e-03,0.315781
8.9680e-03,0.324766
9.0000e-03,0.330703
9.0320e-03,0.331172
9.0640e-03,0.334219
9.0960e-03,0.343203
9.1280e-03,0.346484
9.1600e-03,0.350625
9.1920e-03,0.355938
9.2240e-03,0.367188
9.2560e-03,0.374453
9.2880e-03,0.386641
9.3200e-03,0.395469
9.3520e-03,0.399844
9.3840e-03,0.403906
9.4160e-03,0.415781
9.4480e-03,0.425937
9.4800e-03,0.439297
9.5120e-03,0.457578
9.5440e-03,0.468672
9.5760e-03,0.476875
9.6080e-03,0.503281
9.6400e-03,0.510312
9.6720e-03,0.534453
9.7040e-03,0.558203
9.7360e-03,0.584766
9.7680e-03,0.617969
9.8000e-03,0.64
9.8320e-03,0.667266
9.8640e-03,0.692109
9.8960e-03,0.717812
9.9280e-03,0.756953
9.9600e-03,0.786094
9.9920e-03,0.81375
1.0024e-02,0.849219
1.0056e-02,0.882656
1.0088e-02,0.910234
1.0120e-02,0.95125
1.0152e-02,0.990781
1.0184e-02,1.02578
1.0216e-02,1.07414
1.0248e-02,1.13055
1.0280e-02,1.18297
1.0312e-02,1.22641
1.0344e-02,1.25211
1.0376e-02,1.30164
1.0408e-02,1.34367
1.0440e-02,1.40023
1.0472e-02,1.42984
1.0504e-02,1.47578
1.0536e-02,1.52
1.0568e-02,1.56734
1.0600e-02,1.60406
1.0632e-02,1.62695
1.0664e-02,1.66602
1.0696e-02,1.70211
1.0728e-02,1.72914
1.0760e-02,1.74172
1.0792e-02,1.7882
1.0824e-02,1.77539
1.0856e-02,1.78094
1.0888e-02,1.79594
1.0920e-02,1.81969
1.0952e-02,1.82664
1.0984e-02,1.82398
1.1016e-02,1.80461
1.1048e-02,1.7632
1.1080e-02,1.74664
1.1112e-02,1.7382
1.1144e-02,1.70953
1.1176e-02,1.66133
1.1208e-02,1.59813
1.1240e-02,1.55
1.1272e-02,1.50344
1.1304e-02,1.46141
1.1336e-02,1.39719
1.1368e-02,1.34398
1.1400e-02,1.28789
1.1432e-02,1.22352
1.1464e-02,1.16633
1.1496e-02,1.11797
1.1528e-02,1.05383
1.1560e-02,0.997187
1.1592e-02,0.935859
1.1624e-02,0.871719
1.1656e-02,0.811172
1.1688e-02,0.762578
1.1720e-02,0.721094
1.1752e-02,0.672031
1.1784e-02,0.626953
1.1816e-02,0.576641
1.1848e-02,0.533047
1.1880e-02,0.494687
1.1912e-02,0.456875
1.1944e-02,0.418984
1.1976e-02,0.395
1.2008e-02,0.3725
1.2040e-02,0.344609
1.2072e-02,0.318359
1.2104e-02,0.29625
1.2136e-02,0.283125
1.2168e-02,0.260469
1.2200e-02,0.240859
1.2232e-02,0.222656
1.2264e-02,0.209922
1.2296e-02,0.202813
1.2328e-02,0.184063
1.2360e-02,0.169766
1.2392e-02,0.161328
1.2424e-02,0.158438
1.2456e-02,0.14875
1.2488e-02,0.148672
1.2520e-02,0.142422
1.2552e-02,0.132969
1.2584e-02,0.128516
1.2616e-02,0.128281
1.2648e-02,0.124141
1.2680e-02,0.1225
1.2712e-02,0.1125
1.2744e-02,0.113203
1.2776e-02,0.113437
1.2808e-02,0.110313
1.2840e-02,0.110469
1.2872e-02,0.106875
1.2904e-02,0.108359
1.2936e-02,0.102344
1.2968e-02,0.108047
1.3000e-02,0.10375
1.3032e-02,0.0973438
1.3064e-02,0.100703
1.3096e-02,0.0965625
1.3128e-02,0.0945312
1.3160e-02,0.0896875
1.3192e-02,0.0902344
1.3224e-02,0.0921875
1.3256e-02,0.0902344
1.3288e-02,0.0902344
1.3320e-02,0.09
1.3352e-02,0.0903906
1.3384e-02,0.0905469
1.3416e-02,0.0900781
1.3448e-02,0.0900781
1.3480e-02,0.0898438
1.3512e-02,0.0895313
1.3544e-02,0.0854687
1.3576e-02,0.0858594
1.3608e-02,0.08875
1.3640e-02,0.0889062
1.3672e-02,0.0899219
1.3704e-02,0.0859375
1.3736e-02,0.0877344
1.3768e-02,0.0836719
1.3800e-02,0.081875
1.3832e-02,0.0842188
1.3864e-02,0.0827344
1.3896e-02,0.0858594
1.3928e-02,0.0845312
1.3960e-02,0.0842188
1.3992e-02,0.0813281
1.4024e-02,0.0794531
1.4056e-02,0.0823437
1.4088e-02,0.08625
1.4120e-02,0.0879687
1.4152e-02,0.0886719
1.4184e-02,0.0892187
1.4216e-02,0.0859375
1.4248e-02,0.0821094
1.4280e-02,0.079375
1.4312e-02,0.0736719
1.4344e-02,0.0754687
1.4376e-02,0.0724219
1.4408e-02,0.0702344
1.4440e-02,0.0707031
1.4472e-02,0.0753906
1.4504e-02,0.0753125
1.4536e-02,0.0735156
1.4568e-02,0.0719531
1.4600e-02,0.0742969
1.4632e-02,0.0747656
1.4664e-02,0.0760156
1.4696e-02,0.0777344
1.4728e-02,0.0769531
1.4760e-02,0.0758594
1.4792e-02,0.0714062
1.4824e-02,0.0699219
1.4856e-02,0.0700781
1.4888e-02,0.07125
1.4920e-02,0.0750781
1.4952e-02,0.0714844
1.4984e-02,0.0711719
1.5016e-02,0.0698437
1.5048e-02,0.0703125
1.5080e-02,0.070625
1.5112e-02,0.0703125
1.5144e-02,0.0702344
1.5176e-02,0.07
1.5208e-02,0.0701562
1.5240e-02,0.0728906
1.5272e-02,0.0723437
1.5304e-02,0.0739063
1.5336e-02,0.0735937
1.5368e-02,0.07
1.5400e-02,0.0699219
1.5432e-02,0.07125
1.5464e-02,0.0716406
1.5496e-02,0.0709375
1.5528e-02,0.0711719
1.5560e-02,0.073125
1.5592e-02,0.0770312
1.5624e-02,0.0804687
1.5656e-02,0.0726562
1.5688e-02,0.0719531
1.5720e-02,0.0723437
1.5752e-02,0.0717188
1.5784e-02,0.0710156
1.5816e-02,0.07125
1.5848e-02,0.0717188
1.5880e-02,0.0710156
1.5912e-02,0.0703906
1.5944e-02,0.0714062
1.5976e-02,0.0719531
1.6008e-02,0.0736719
1.6040e-02,0.0760937
1.6072e-02,0.0810156
1.6104e-02,0.0811719
1.6136e-02,0.0822656
1.6168e-02,0.0817188
1.6200e-02,0.083125
1.6232e-02,0.08
1.6264e-02,0.0821094
1.6296e-02,0.0785938
1.6328e-02,0.0798437
1.6360e-02,0.0792969
1.6392e-02,0.0782031
1.6424e-02,0.0813281
1.6456e-02,0.0807031
1.6488e-02,0.0795313
1.6520e-02,0.0816406
1.6552e-02,0.0842188
1.6584e-02,0.0796094
1.6616e-02,0.0809375
1.6648e-02,0.0804687
1.6680e-02,0.08
1.6712e-02,0.0746094
1.6744e-02,0.075
1.6776e-02,0.0759375
1.6808e-02,0.0708594
1.6840e-02,0.07125
1.6872e-02,0.0742969
1.6904e-02,0.0726562
1.6936e-02,0.0716406
1.6968e-02,0.0735156
1.7000e-02,0.070625
1.7032e-02,0.0701562
1.7064e-02,0.0700781
1.7096e-02,0.0700781
1.7128e-02,0.0700781
1.7160e-02,0.0711719
1.7192e-02,0.07
1.7224e-02,0.0704687
1.7256e-02,0.0707813
1.7288e-02,0.0708594
1.7320e-02,0.0734375
1.7352e-02,0.0723437
1.7384e-02,0.0715625
1.7416e-02,0.0735156
1.7448e-02,0.0728906
1.7480e-02,0.0750781
1.7512e-02,0.0797656
1.7544e-02,0.076875
1.7576e-02,0.0746875
1.7608e-02,0.0751563
1.7640e-02,0.0782031
1.7672e-02,0.0775781
1.7704e-02,0.0820312
1.7736e-02,0.0772656
1.7768e-02,0.0823437
1.7800e-02,0.08125
1.7832e-02,0.0810937
1.7864e-02,0.0841406
1.7896e-02,0.0804687
1.7928e-02,0.081875
1.7960e-02,0.085
1.7992e-02,0.0844531
1.8024e-02,0.0789844
1.8056e-02,0.0808594
1.8088e-02,0.0792969
1.8120e-02,0.0828906
1.8152e-02,0.0800781
1.8184e-02,0.0839063
1.8216e-02,0.085625
1.8248e-02,0.09
1.8280e-02,0.0900781
1.8312e-02,0.0909375
1.8344e-02,0.0905469
1.8376e-02,0.0925781
1.8408e-02,0.0942188
1.8440e-02,0.0975
1.8472e-02,0.0958594
1.8504e-02,0.0921094
1.8536e-02,0.0963281
1.8568e-02,0.0971094
1.8600e-02,0.0988281
1.8632e-02,0.101406
1.8664e-02,0.099375
1.8696e-02,0.103125
1.8728e-02,0.104609
1.8760e-02,0.110313
1.8792e-02,0.109766
1.8824e-02,0.110156
1.8856e-02,0.112344
1.8888e-02,0.109219
1.8920e-02,0.110625
1.8952e-02,0.113437
1.8984e-02,0.114844
1.9016e-02,0.121172
1.9048e-02,0.12375
1.9080e-02,0.131016
1.9112e-02,0.131406
1.9144e-02,0.133906
1.9176e-02,0.140781
1.9208e-02,0.143906
1.9240e-02,0.150937
1.9272e-02,0.157422
1.9304e-02,0.168281
1.9336e-02,0.179453
1.9368e-02,0.189922
1.9400e-02,0.19625
1.9432e-02,0.214297
1.9464e-02,0.227969
1.9496e-02,0.235781
1.9528e-02,0.255391
1.9560e-02,0.262422
1.9592e-02,0.280156
1.9624e-02,0.294219
1.9656e-02,0.304297
1.9688e-02,0.312344
1.9720e-02,0.315078
1.9752e-02,0.322578
1.9784e-02,0.324375
1.9816e-02,0.333203
1.9848e-02,0.343047
1.9880e-02,0.355469
1.9912e-02,0.355
1.9944e-02,0.362109
1.9976e-02,0.361875
2.0008e-02,0.361797
2.0040e-02,0.370937
2.0072e-02,0.372031
2.0104e-02,0.378672
2.0136e-02,0.383672
2.0168e-02,0.395781
2.0200e-02,0.407734
2.0232e-02,0.424687
2.0264e-02,0.446484
2.0296e-02,0.475547
2.0328e-02,0.496953
2.0360e-02,0.535234
2.0392e-02,0.557422
2.0424e-02,0.591641
2.0456e-02,0.632187
2.0488e-02,0.671484
2.0520e-02,0.724687
2.0552e-02,0.782422
2.0584e-02,0.832578
2.0616e-02,0.898125
2.0648e-02,0.968047
2.0680e-02,1.04273
2.0712e-02,1.11383
2.0744e-02,1.18883
2.0776e-02,1.25492
2.0808e-02,1.3282
2.0840e-02,1.37859
2.0872e-02,1.41992
2.0904e-02,1.48141
2.0936e-02,1.55766
2.0968e-02,1.59445
2.1000e-02,1.64586
2.1032e-02,1.69055
2.1064e-02,1.71992
2.1096e-02,1.71297
2.1128e-02,1.69961
2.1160e-02,1.69742
2.1192e-02,1.68648
2.1224e-02,1.63953
2.1256e-02,1.59125
2.1288e-02,1.56516
2.1320e-02,1.50141
2.1352e-02,1.43883
2.1384e-02,1.37281
2.1416e-02,1.29664
2.1448e-02,1.24555
2.1480e-02,1.17859
2.1512e-02,1.09352
2.1544e-02,1.01453
2.1576e-02,0.921953
2.1608e-02,0.840859
2.1640e-02,0.766563
2.1672e-02,0.696641
2.1704e-02,0.630391
2.1736e-02,0.573984
2.1768e-02,0.524922
2.1800e-02,0.469219
2.1832e-02,0.431953
2.1864e-02,0.395312
2.1896e-02,0.358281
2.1928e-02,0.341172
2.1960e-02,0.323359
2.1992e-02,0.307344
2.2024e-02,0.30125
2.2056e-02,0.291641
2.2088e-02,0.277969
2.2120e-02,0.269453
2.2152e-02,0.264531
2.2184e-02,0.262188
2.2216e-02,0.258125
2.2248e-02,0.255078
2.2280e-02,0.258516
2.2312e-02,0.264609
2.2344e-02,0.268828
2.2376e-02,0.276172
2.2408e-02,0.293672
2.2440e-02,0.299375
2.2472e-02,0.309141
2.2504e-02,0.318125
2.2536e-02,0.326562
2.2568e-02,0.341562
2.2600e-02,0.345469
2.2632e-02,0.35375
2.2664e-02,0.358906
2.2696e-02,0.365938
2.2728e-02,0.390781
2.2760e-02,0.416875
2.2792e-02,0.443125
2.2824e-02,0.4575
2.2856e-02,0.477344
2.2888e-02,0.500547
2.2920e-02,0.533672
2.2952e-02,0.567656
2.2984e-02,0.601172
2.3016e-02,0.621328
2.3048e-02,0.66125
2.3080e-02,0.699219
2.3112e-02,0.72875
2.3144e-02,0.7475
2.3176e-02,0.793906
2.3208e-02,0.824297
2.3240e-02,0.854844
2.3272e-02,0.871563
2.3304e-02,0.885781
2.3336e-02,0.895312
2.3368e-02,0.898594
2.3400e-02,0.910859
2.3432e-02,0.906484
2.3464e-02,0.899844
2.3496e-02,0.888984
2.3528e-02,0.869297
2.3560e-02,0.845312
2.3592e-02,0.818281
2.3624e-02,0.778281
2.3656e-02,0.750156
2.3688e-02,0.724375
2.3720e-02,0.675859
2.3752e-02,0.6375
2.3784e-02,0.594766
2.3816e-02,0.547891
2.3848e-02,0.507187
2.3880e-02,0.479062
2.3912e-02,0.437656
2.3944e-02,0.399062
2.3976e-02,0.365781
2.4008e-02,0.332031
2.4040e-02,0.310469
2.4072e-02,0.285469
2.4104e-02,0.267578
2.4136e-02,0.246172
2.4168e-02,0.2325
2.4200e-02,0.225313
2.4232e-02,0.212344
2.4264e-02,0.207344
2.4296e-02,0.19125
2.4328e-02,0.185703
2.4360e-02,0.178203
2.4392e-02,0.169766
2.4424e-02,0.169375
2.4456e-02,0.167109
2.4488e-02,0.157891
2.4520e-02,0.16375
2.4552e-02,0.154687
2.4584e-02,0.154062
2.4616e-02,0.157734
2.4648e-02,0.156016
2.4680e-02,0.164453
2.4712e-02,0.161172
2.4744e-02,0.165156
2.4776e-02,0.166953
2.4808e-02,0.171719
2.4840e-02,0.174766
2.4872e-02,0.180703
2.4904e-02,0.190469
2.4936e-02,0.196641
2.4968e-02,0.200937
2.5000e-02,0.202422
2.5032e-02,0.203984
2.5064e-02,0.201328
2.5096e-02,0.215703
2.5128e-02,0.216484
2.5160e-02,0.225156
2.5192e-02,0.230312
2.5224e-02,0.240938
2.5256e-02,0.254531
2.5288e-02,0.260781
2.5320e-02,0.269844
2.5352e-02,0.281719
2.5384e-02,0.296719
2.5416e-02,0.308203
2.5448e-02,0.316797
2.5480e-02,0.324375
2.5512e-02,0.334062
2.5544e-02,0.337031
2.5576e-02,0.330937
2.5608e-02,0.333594
2.5640e-02,0.338984
2.5672e-02,0.334297
2.5704e-02,0.330625
2.5736e-02,0.331484
2.5768e-02,0.331328
2.5800e-02,0.332656
2.5832e-02,0.330156
2.5864e-02,0.309844
2.5896e-02,0.293047
2.5928e-02,0.292109
2.5960e-02,0.276016
2.5992e-02,0.266328
2.6024e-02,0.249844
2.6056e-02,0.244844
2.6088e-02,0.229922
2.6120e-02,0.214922
2.6152e-02,0.201797
2.6184e-02,0.196719
2.6216e-02,0.179062
2.6248e-02,0.166094
2.6280e-02,0.154141
2.6312e-02,0.148906
2.6344e-02,0.132031
2.6376e-02,0.127734
2.6408e-02,0.118437
2.6440e-02,0.110078
2.6472e-02,0.108437
2.6504e-02,0.109375
2.6536e-02,0.104922
2.6568e-02,0.104219
2.6600e-02,0.100781
2.6632e-02,0.0959375
2.6664e-02,0.0971094
2.6696e-02,0.0967969
2.6728e-02,0.0963281
2.6760e-02,0.100859
2.6792e-02,0.101953
2.6824e-02,0.0992969
2.6856e-02,0.0951563
2.6888e-02,0.0932812
2.6920e-02,0.09625
2.6952e-02,0.100937
2.6984e-02,0.100937
2.7016e-02,0.0991406
2.7048e-02,0.09625
2.7080e-02,0.0980469
2.7112e-02,0.098125
2.7144e-02,0.100469
2.7176e-02,0.100937
2.7208e-02,0.103125
2.7240e-02,0.101875
2.7272e-02,0.103984
2.7304e-02,0.100313
2.7336e-02,0.101641
2.7368e-02,0.0988281
2.7400e-02,0.09875
2.7432e-02,0.10375
2.7464e-02,0.0975
2.7496e-02,0.0934375
2.7528e-02,0.0919531
2.7560e-02,0.0907031
2.7592e-02,0.0928906
2.7624e-02,0.0975781
2.7656e-02,0.0996094
2.7688e-02,0.0992187
2.7720e-02,0.0983594
2.7752e-02,0.0989062
2.7784e-02,0.106562
2.7816e-02,0.106641
2.7848e-02,0.105781
2.7880e-02,0.111016
2.7912e-02,0.11625
2.7944e-02,0.116953
2.7976e-02,0.121484
2.8008e-02,0.125859
2.8040e-02,0.131016
2.8072e-02,0.138672
2.8104e-02,0.145547
2.8136e-02,0.150625
2.8168e-02,0.161406
2.8200e-02,0.172031
2.8232e-02,0.182656
2.8264e-02,0.185937
2.8296e-02,0.197109
2.8328e-02,0.220938
2.8360e-02,0.237656
2.8392e-02,0.249375
2.8424e-02,0.265078
2.8456e-02,0.27375
2.8488e-02,0.283594
2.8520e-02,0.297187
2.8552e-02,0.314062
2.8584e-02,0.336797
2.8616e-02,0.358203
2.8648e-02,0.380391
2.8680e-02,0.387734
2.8712e-02,0.400547
2.8744e-02,0.413594
2.8776e-02,0.418594
2.8808e-02,0.430547
2.8840e-02,0.429219
2.8872e-02,0.425625
2.8904e-02,0.414375
2.8936e-02,0.427031
2.8968e-02,0.419844
2.9000e-02,0.408438
2.9032e-02,0.4
2.9064e-02,0.389297
2.9096e-02,0.37625
2.9128e-02,0.366328
2.9160e-02,0.347891
2.9192e-02,0.332812
2.9224e-02,0.312656
2.9256e-02,0.292188
2.9288e-02,0.274219
2.9320e-02,0.262578
2.9352e-02,0.242266
2.9384e-02,0.231875
2.9416e-02,0.223672
2.9448e-02,0.211172
2.9480e-02,0.199609
2.9512e-02,0.191875
2.9544e-02,0.188125
2.9576e-02,0.179141
2.9608e-02,0.178516
2.9640e-02,0.1725
2.9672e-02,0.174375
2.9704e-02,0.176484
2.9736e-02,0.179844
2.9768e-02,0.187578
2.9800e-02,0.19
2.9832e-02,0.191953
2.9864e-02,0.193437
2.9896e-02,0.198516
2.9928e-02,0.21
2.9960e-02,0.210312
2.9992e-02,0.214219
3.0024e-02,0.220781
3.0056e-02,0.228672
3.0088e-02,0.238828
3.0120e-02,0.247187
3.0152e-02,0.256719
3.0184e-02,0.259219
3.0216e-02,0.278594
3.0248e-02,0.295547
3.0280e-02,0.320937
3.0312e-02,0.344297
3.0344e-02,0.363594
3.0376e-02,0.386562
3.0408e-02,0.402266
3.0440e-02,0.418672
3.0472e-02,0.449062
3.0504e-02,0.483359
3.0536e-02,0.513828
3.0568e-02,0.542578
3.0600e-02,0.565
3.0632e-02,0.584922
3.0664e-02,0.628203
3.0696e-02,0.661563
3.0728e-02,0.683437
3.0760e-02,0.710938
3.0792e-02,0.740859
3.0824e-02,0.758203
3.0856e-02,0.778359
3.0888e-02,0.784141
3.0920e-02,0.784844
3.0952e-02,0.7925
3.0984e-02,0.789297
3.1016e-02,0.789453
3.1048e-02,0.787109
3.1080e-02,0.7675
3.1112e-02,0.741953
3.1144e-02,0.723359
3.1176e-02,0.712422
3.1208e-02,0.682656
3.1240e-02,0.659062
3.1272e-02,0.642813
3.1304e-02,0.607812
3.1336e-02,0.584219
3.1368e-02,0.547031
3.1400e-02,0.527187
3.1432e-02,0.514609
3.1464e-02,0.483672
3.1496e-02,0.456016
3.1528e-02,0.439453
3.1560e-02,0.414453
3.1592e-02,0.401875
3.1624e-02,0.381328
3.1656e-02,0.356484
3.1688e-02,0.349141
3.1720e-02,0.345547
3.1752e-02,0.3375
3.1784e-02,0.329609
3.1816e-02,0.325078
3.1848e-02,0.318047
3.1880e-02,0.317656
3.1912e-02,0.319375
3.1944e-02,0.316016
3.1976e-02,0.304922
3.2008e-02,0.312656
3.2040e-02,0.311016
3.2072e-02,0.3225
3.2104e-02,0.323281
3.2136e-02,0.333438
3.2168e-02,0.342891
3.2200e-02,0.355391
3.2232e-02,0.370547
3.2264e-02,0.382109
3.2296e-02,0.398672
3.2328e-02,0.429688
3.2360e-02,0.463516
3.2392e-02,0.500938
3.2424e-02,0.539453
3.2456e-02,0.597109
3.2488e-02,0.649844
3.2520e-02,0.706484
3.2552e-02,0.776641
3.2584e-02,0.84125
3.2616e-02,0.907656
3.2648e-02,0.961797
3.2680e-02,1.04211
3.2712e-02,1.12477
3.2744e-02,1.19836
3.2776e-02,1.2707
3.2808e-02,1.33758
3.2840e-02,1.41008
3.2872e-02,1.47859
3.2904e-02,1.5382
3.2936e-02,1.58602
3.2968e-02,1.63883
3.3000e-02,1.65398
3.3032e-02,1.6768
3.3064e-02,1.68102
3.3096e-02,1.68578
3.3128e-02,1.67406
3.3160e-02,1.64953
3.3192e-02,1.63523
3.3224e-02,1.61164
3.3256e-02,1.57375
3.3288e-02,1.53805
3.3320e-02,1.48984
3.3352e-02,1.43391
3.3384e-02,1.36453
3.3416e-02,1.28313
3.3448e-02,1.18938
3.3480e-02,1.10539
3.3512e-02,1.025
3.3544e-02,0.943437
3.3576e-02,0.866484
3.3608e-02,0.787422
3.3640e-02,0.709297
3.3672e-02,0.650391
3.3704e-02,0.579922
3.3736e-02,0.515781
3.3768e-02,0.468359
3.3800e-02,0.423672
3.3832e-02,0.383359
3.3864e-02,0.343281
3.3896e-02,0.310703
3.3928e-02,0.286172
3.3960e-02,0.259453
3.3992e-02,0.232266
3.4024e-02,0.218047
3.4056e-02,0.204766
3.4088e-02,0.182578
3.4120e-02,0.167188
3.4152e-02,0.148672
3.4184e-02,0.147031
3.4216e-02,0.143203
3.4248e-02,0.136719
3.4280e-02,0.129609
3.4312e-02,0.129375
3.4344e-02,0.126562
3.4376e-02,0.115312
3.4408e-02,0.111094
3.4440e-02,0.109766
3.4472e-02,0.107656
3.4504e-02,0.110078
3.4536e-02,0.11
3.4568e-02,0.102266
3.4600e-02,0.0975
3.4632e-02,0.095625
3.4664e-02,0.0920313
3.4696e-02,0.0923437
3.4728e-02,0.0913281
3.4760e-02,0.0903125
3.4792e-02,0.0901562
3.4824e-02,0.0932812
3.4856e-02,0.0920313
3.4888e-02,0.094375
3.4920e-02,0.091875
3.4952e-02,0.0904687
3.4984e-02,0.0910937
3.5016e-02,0.090625
3.5048e-02,0.0882031
3.5080e-02,0.0854687
3.5112e-02,0.0835937
3.5144e-02,0.0819531
3.5176e-02,0.0775
3.5208e-02,0.0727344
3.5240e-02,0.0795313
3.5272e-02,0.0782031
3.5304e-02,0.0791406
3.5336e-02,0.0817188
3.5368e-02,0.08
3.5400e-02,0.0817188
3.5432e-02,0.0847656
3.5464e-02,0.0848437
3.5496e-02,0.0834375
3.5528e-02,0.0863281
3.5560e-02,0.0835937
3.5592e-02,0.0752344
3.5624e-02,0.0764844
3.5656e-02,0.0760937
3.5688e-02,0.0717969
3.5720e-02,0.0742188
3.5752e-02,0.0729688
3.5784e-02,0.0764844
3.5816e-02,0.0732031
3.5848e-02,0.0721875
3.5880e-02,0.0710156
3.5912e-02,0.0702344
3.5944e-02,0.0703906
3.5976e-02,0.0703125
3.6008e-02,0.0702344
3.6040e-02,0.0698437
3.6072e-02,0.0709375
3.6104e-02,0.0703125
3.6136e-02,0.0720312
3.6168e-02,0.0711719
3.6200e-02,0.0741406
3.6232e-02,0.0747656
3.6264e-02,0.0767187
3.6296e-02,0.0770312
3.6328e-02,0.0705469
3.6360e-02,0.0719531
3.6392e-02,0.0711719
3.6424e-02,0.0705469
3.6456e-02,0.0711719
3.6488e-02,0.0705469
3.6520e-02,0.0710156
3.6552e-02,0.07
3.6584e-02,0.0701562
3.6616e-02,0.0720312
3.6648e-02,0.0752344
3.6680e-02,0.0735937
3.6712e-02,0.0703125
3.6744e-02,0.0702344
3.6776e-02,0.0719531
3.6808e-02,0.0766406
3.6840e-02,0.0757812
3.6872e-02,0.0767187
3.6904e-02,0.0760937
3.6936e-02,0.0751563
3.6968e-02,0.0760156
3.7000e-02,0.0746094
3.7032e-02,0.0740625
3.7064e-02,0.0764844
3.7096e-02,0.0778125
3.7128e-02,0.07625
3.7160e-02,0.0764844
3.7192e-02,0.0822656
3.7224e-02,0.0796094
3.7256e-02,0.0807031
3.7288e-02,0.0833594
3.7320e-02,0.0884375
3.7352e-02,0.0827344
3.7384e-02,0.0817188
3.7416e-02,0.0877344
3.7448e-02,0.0852344
3.7480e-02,0.0777344
3.7512e-02,0.0763281
3.7544e-02,0.0742188
3.7576e-02,0.0722656
3.7608e-02,0.0725
3.7640e-02,0.0750781
3.7672e-02,0.0732812
3.7704e-02,0.0770312
3.7736e-02,0.0777344
3.7768e-02,0.0721094
3.7800e-02,0.0796875
3.7832e-02,0.0771094
3.7864e-02,0.0711719
3.7896e-02,0.0700781
3.7928e-02,0.070625
3.7960e-02,0.071875
3.7992e-02,0.0732031
3.8024e-02,0.0732812
3.8056e-02,0.0754687
3.8088e-02,0.0744531
3.8120e-02,0.0735937
3.8152e-02,0.0763281
3.8184e-02,0.0784375
3.8216e-02,0.0777344
3.8248e-02,0.075625
3.8280e-02,0.0752344
3.8312e-02,0.07625
3.8344e-02,0.0733594
3.8376e-02,0.0732812
3.8408e-02,0.0735156
3.8440e-02,0.0739063
3.8472e-02,0.0776562
3.8504e-02,0.0778125
3.8536e-02,0.0771875
3.8568e-02,0.0786719
3.8600e-02,0.0840625
3.8632e-02,0.0799219
3.8664e-02,0.0785938
3.8696e-02,0.0840625
3.8728e-02,0.0776562
3.8760e-02,0.0773438
3.8792e-02,0.0820312
3.8824e-02,0.084375
3.8856e-02,0.0853906
3.8888e-02,0.0908594
3.8920e-02,0.0890625
3.8952e-02,0.0904687
3.8984e-02,0.0907813
3.9016e-02,0.0926562
3.9048e-02,0.0989844
3.9080e-02,0.095625
3.9112e-02,0.0983594
3.9144e-02,0.102734
3.9176e-02,0.103203
3.9208e-02,0.106484
3.9240e-02,0.106094
3.9272e-02,0.105391
3.9304e-02,0.106875
3.9336e-02,0.112109
3.9368e-02,0.113203
3.9400e-02,0.116875
3.9432e-02,0.115938
3.9464e-02,0.11625
3.9496e-02,0.116641
3.9528e-02,0.118359
3.9560e-02,0.131016
3.9592e-02,0.137891
3.9624e-02,0.136562
3.9656e-02,0.147812
3.9688e-02,0.158672
3.9720e-02,0.169141
3.9752e-02,0.179609
3.9784e-02,0.188828
3.9816e-02,0.2
3.9848e-02,0.217266
3.9880e-02,0.225937
3.9912e-02,0.236172
3.9944e-02,0.248516
3.9976e-02,0.260625
4.0008e-02,0.273594
4.0040e-02,0.281094
4.0072e-02,0.290469
4.0104e-02,0.294609
4.0136e-02,0.303281
4.0168e-02,0.313672
4.0200e-02,0.326328
4.0232e-02,0.329531
4.0264e-02,0.338984
4.0296e-02,0.342031
4.0328e-02,0.357656
4.0360e-02,0.373359
4.0392e-02,0.381719
4.0424e-02,0.386797
4.0456e-02,0.403359
4.0488e-02,0.419766
4.0520e-02,0.434531
4.0552e-02,0.445312
4.0584e-02,0.481406
4.0616e-02,0.513984
4.0648e-02,0.541953
4.0680e-02,0.584766
4.0712e-02,0.628281
4.0744e-02,0.675703
4.0776e-02,0.725625
4.0808e-02,0.7875
4.0840e-02,0.833594
4.0872e-02,0.894453
4.0904e-02,0.952109
4.0936e-02,1.02281
4.0968e-02,1.09109
4.1000e-02,1.17297
4.1032e-02,1.23555
4.1064e-02,1.29336
4.1096e-02,1.34945
4.1128e-02,1.41773
4.1160e-02,1.46953
4.1192e-02,1.50266
4.1224e-02,1.53148
4.1256e-02,1.53375
4.1288e-02,1.55078
4.1320e-02,1.56766
4.1352e-02,1.54867
4.1384e-02,1.55023
4.1416e-02,1.52508
4.1448e-02,1.495
4.1480e-02,1.47352
4.1512e-02,1.42953
4.1544e-02,1.37156
4.1576e-02,1.32094
4.1608e-02,1.26914
4.1640e-02,1.19344
4.1672e-02,1.12375
4.1704e-02,1.05023
4.1736e-02,0.979062
4.1768e-02,0.909297
4.1800e-02,0.826328
4.1832e-02,0.756797
4.1864e-02,0.676562
4.1896e-02,0.609609
4.1928e-02,0.54375
4.1960e-02,0.489766
4.1992e-02,0.445703
4.2024e-02,0.409297
4.2056e-02,0.386641
4.2088e-02,0.353359
4.2120e-02,0.321875
4.2152e-02,0.305703
4.2184e-02,0.290781
4.2216e-02,0.273984
4.2248e-02,0.270547
4.2280e-02,0.269766
4.2312e-02,0.270625
4.2344e-02,0.27125
4.2376e-02,0.277734
4.2408e-02,0.278516
4.2440e-02,0.285859
4.2472e-02,0.282031
4.2504e-02,0.295859
4.2536e-02,0.300391
4.2568e-02,0.312266
4.2600e-02,0.327031
4.2632e-02,0.342812
4.2664e-02,0.356328
4.2696e-02,0.367344
4.2728e-02,0.386562
4.2760e-02,0.405781
4.2792e-02,0.426328
4.2824e-02,0.451016
4.2856e-02,0.483125
4.2888e-02,0.513984
4.2920e-02,0.544141
4.2952e-02,0.590078
4.2984e-02,0.620078
4.3016e-02,0.647422
4.3048e-02,0.670859
4.3080e-02,0.693516
4.3112e-02,0.725156
4.3144e-02,0.747891
4.3176e-02,0.771484
4.3208e-02,0.782578
4.3240e-02,0.790625
4.3272e-02,0.810547
4.3304e-02,0.830703
4.3336e-02,0.830156
4.3368e-02,0.833281
4.3400e-02,0.822734
4.3432e-02,0.817109
4.3464e-02,0.813125
4.3496e-02,0.794453
4.3528e-02,0.777422
4.3560e-02,0.75
4.3592e-02,0.725078
4.3624e-02,0.698438
4.3656e-02,0.657031
4.3688e-02,0.621016
4.3720e-02,0.582578
4.3752e-02,0.545703
4.3784e-02,0.503359
4.3816e-02,0.472578
4.3848e-02,0.44625
4.3880e-02,0.403594
4.3912e-02,0.379453
4.3944e-02,0.342266
4.3976e-02,0.309375
4.4008e-02,0.285781
4.4040e-02,0.2625
4.4072e-02,0.241328
4.4104e-02,0.228516
4.4136e-02,0.214453
4.4168e-02,0.207344
4.4200e-02,0.201484
4.4232e-02,0.189688
4.4264e-02,0.187109
4.4296e-02,0.176719
4.4328e-02,0.170547
4.4360e-02,0.169453
4.4392e-02,0.167812
4.4424e-02,0.163437
4.4456e-02,0.162187
4.4488e-02,0.16375
4.4520e-02,0.165312
4.4552e-02,0.164766
4.4584e-02,0.168359
4.4616e-02,0.171953
4.4648e-02,0.172891
4.4680e-02,0.176484
4.4712e-02,0.18625
4.4744e-02,0.190234
4.4776e-02,0.193437
4.4808e-02,0.200937
4.4840e-02,0.210156
4.4872e-02,0.220703
4.4904e-02,0.224687
4.4936e-02,0.234922
4.4968e-02,0.241953
4.5000e-02,0.25875
4.5032e-02,0.269766
4.5064e-02,0.282109
4.5096e-02,0.281875
4.5128e-02,0.290625
4.5160e-02,0.289687
4.5192e-02,0.29625
4.5224e-02,0.301875
4.5256e-02,0.311094
4.5288e-02,0.312344
4.5320e-02,0.317344
4.5352e-02,0.320391
4.5384e-02,0.320391
4.5416e-02,0.325547
4.5448e-02,0.328125
4.5480e-02,0.325078
4.5512e-02,0.322031
4.5544e-02,0.307344
4.5576e-02,0.287656
4.5608e-02,0.287891
4.5640e-02,0.280312
4.5672e-02,0.265547
4.5704e-02,0.253984
4.5736e-02,0.247656
4.5768e-02,0.230391
4.5800e-02,0.212578
4.5832e-02,0.207109
4.5864e-02,0.188438
4.5896e-02,0.179531
4.5928e-02,0.169844
4.5960e-02,0.16625
4.5992e-02,0.151406
4.6024e-02,0.142969
4.6056e-02,0.131641
4.6088e-02,0.119844
4.6120e-02,0.112266
4.6152e-02,0.11625
4.6184e-02,0.110937
4.6216e-02,0.110781
4.6248e-02,0.107109
4.6280e-02,0.107031
4.6312e-02,0.1
4.6344e-02,0.104609
4.6376e-02,0.104922
4.6408e-02,0.0991406
4.6440e-02,0.0975
4.6472e-02,0.0957031
4.6504e-02,0.101484
4.6536e-02,0.0978125
4.6568e-02,0.0978125
4.6600e-02,0.0927344
4.6632e-02,0.090625
4.6664e-02,0.0907813
4.6696e-02,0.0932031
4.6728e-02,0.0924219
4.6760e-02,0.0982031
4.6792e-02,0.0970312
4.6824e-02,0.0953906
4.6856e-02,0.0939062
4.6888e-02,0.0895313
4.6920e-02,0.0929688
4.6952e-02,0.0951563
4.6984e-02,0.0964063
4.7016e-02,0.0928906
4.7048e-02,0.0998438
4.7080e-02,0.0963281
4.7112e-02,0.0935156
4.7144e-02,0.0911719
4.7176e-02,0.0908594
4.7208e-02,0.09
4.7240e-02,0.0952344
4.7272e-02,0.0953125
4.7304e-02,0.0957812
4.7336e-02,0.105156
4.7368e-02,0.109531
4.7400e-02,0.112344
4.7432e-02,0.122578
4.7464e-02,0.127812
4.7496e-02,0.131953
4.7528e-02,0.138437
4.7560e-02,0.150469
4.7592e-02,0.157734
4.7624e-02,0.165391
4.7656e-02,0.1725
4.7688e-02,0.18625
4.7720e-02,0.198047
4.7752e-02,0.211094
4.7784e-02,0.226484
4.7816e-02,0.243125
4.7848e-02,0.2575
4.7880e-02,0.272266
4.7912e-02,0.291797
4.7944e-02,0.315469
4.7976e-02,0.320312
4.8008e-02,0.328828
4.8040e-02,0.344297
4.8072e-02,0.359063
4.8104e-02,0.373594
4.8136e-02,0.373125
4.8168e-02,0.39
4.8200e-02,0.389609
4.8232e-02,0.396797
4.8264e-02,0.400469
4.8296e-02,0.400547
4.8328e-02,0.394453
4.8360e-02,0.388281
4.8392e-02,0.382656
4.8424e-02,0.376797
4.8456e-02,0.366562
4.8488e-02,0.356328
4.8520e-02,0.348516
4.8552e-02,0.331719
4.8584e-02,0.32375
4.8616e-02,0.301484
4.8648e-02,0.285469
4.8680e-02,0.275234
4.8712e-02,0.264922
4.8744e-02,0.254375
4.8776e-02,0.247891
4.8808e-02,0.236563
4.8840e-02,0.225156
4.8872e-02,0.212891
4.8904e-02,0.194219
4.8936e-02,0.191641
4.8968e-02,0.195234
4.9000e-02,0.187578
4.9032e-02,0.175859
4.9064e-02,0.180078
4.9096e-02,0.178516
4.9128e-02,0.182813
4.9160e-02,0.189062
4.9192e-02,0.194531
4.9224e-02,0.201562
4.9256e-02,0.214141
4.9288e-02,0.217891
4.9320e-02,0.226719
4.9352e-02,0.237031
4.9384e-02,0.250391
4.9416e-02,0.262031
4.9448e-02,0.275859
4.9480e-02,0.293984
4.9512e-02,0.317266
4.9544e-02,0.336719
4.9576e-02,0.358984
4.9608e-02,0.379062
4.9640e-02,0.407031
4.9672e-02,0.446719
4.9704e-02,0.473281
4.9736e-02,0.499141
4.9768e-02,0.533047
4.9800e-02,0.555781
4.9832e-02,0.582109
4.9864e-02,0.616328
4.9896e-02,0.645156
4.9928e-02,0.660625
4.9960e-02,0.683359
4.9992e-02,0.690859
5.0024e-02,0.701875
5.0056e-02,0.724297
5.0088e-02,0.740703
5.0120e-02,0.736641
5.0152e-02,0.732969
5.0184e-02,0.732344
5.0216e-02,0.725
5.0248e-02,0.713047
5.0280e-02,0.705313
5.0312e-02,0.692109
5.0344e-02,0.685234
5.0376e-02,0.665781
5.0408e-02,0.649453
5.0440e-02,0.642031
5.0472e-02,0.621641
5.0504e-02,0.592812
5.0536e-02,0.573672
5.0568e-02,0.560312
5.0600e-02,0.540234
5.0632e-02,0.493984
5.0664e-02,0.473203
5.0696e-02,0.448984
5.0728e-02,0.423437
5.0760e-02,0.400703
5.0792e-02,0.370703
5.0824e-02,0.356016
5.0856e-02,0.349844
5.0888e-02,0.342734
5.0920e-02,0.325937
5.0952e-02,0.318359
5.0984e-02,0.320156
5.1016e-02,0.326406
5.1048e-02,0.324844
5.1080e-02,0.330078
5.1112e-02,0.333672
5.1144e-02,0.337578
5.1176e-02,0.335312
5.1208e-02,0.345625
5.1240e-02,0.353125
5.1272e-02,0.369531
5.1304e-02,0.394922
5.1336e-02,0.417734
5.1368e-02,0.431875
5.1400e-02,0.469141
5.1432e-02,0.501719
5.1464e-02,0.546563
5.1496e-02,0.587344
5.1528e-02,0.635234
5.1560e-02,0.698594
5.1592e-02,0.758359
5.1624e-02,0.834453
5.1656e-02,0.908359
5.1688e-02,0.966641
5.1720e-02,1.04055
5.1752e-02,1.12078
5.1784e-02,1.20023
5.1816e-02,1.27375
5.1848e-02,1.3475
5.1880e-02,1.39469
5.1912e-02,1.41852
5.1944e-02,1.47641
5.1976e-02,1.50992
5.2008e-02,1.54563
5.2040e-02,1.56242
5.2072e-02,1.56078
5.2104e-02,1.55906
5.2136e-02,1.55187
5.2168e-02,1.5357
5.2200e-02,1.52664
5.2232e-02,1.50617
5.2264e-02,1.47086
5.2296e-02,1.41859
5.2328e-02,1.36766
5.2360e-02,1.30602
5.2392e-02,1.23594
5.2424e-02,1.16945
5.2456e-02,1.1025
5.2488e-02,1.02445
5.2520e-02,0.954453
5.2552e-02,0.875938
5.2584e-02,0.795
5.2616e-02,0.720703
5.2648e-02,0.651953
5.2680e-02,0.585625
5.2712e-02,0.534609
5.2744e-02,0.471562
5.2776e-02,0.421406
5.2808e-02,0.375547
5.2840e-02,0.341797
5.2872e-02,0.306016
5.2904e-02,0.279687
5.2936e-02,0.251797
5.2968e-02,0.227734
5.3000e-02,0.214141
5.3032e-02,0.194219
5.3064e-02,0.185625
5.3096e-02,0.167891
5.3128e-02,0.150469
5.3160e-02,0.136797
5.3192e-02,0.127969
5.3224e-02,0.123906
5.3256e-02,0.124297
5.3288e-02,0.114375
5.3320e-02,0.113359
5.3352e-02,0.110391
5.3384e-02,0.111094
5.3416e-02,0.111641
5.3448e-02,0.109687
5.3480e-02,0.100859
5.3512e-02,0.0924219
5.3544e-02,0.091875
5.3576e-02,0.0908594
5.3608e-02,0.0908594
5.3640e-02,0.090625
5.3672e-02,0.0899219
5.3704e-02,0.09
5.3736e-02,0.0865625
5.3768e-02,0.0882812
5.3800e-02,0.0900781
5.3832e-02,0.0894531
5.3864e-02,0.0883594
5.3896e-02,0.0844531
5.3928e-02,0.0854687
5.3960e-02,0.0855469
5.3992e-02,0.085
5.4024e-02,0.0865625
5.4056e-02,0.0855469
5.4088e-02,0.0828906
5.4120e-02,0.0777344
5.4152e-02,0.0761719
5.4184e-02,0.0778906
5.4216e-02,0.0764063
5.4248e-02,0.0721875
5.4280e-02,0.0730469
5.4312e-02,0.0735937
5.4344e-02,0.075
5.4376e-02,0.0803906
5.4408e-02,0.0774219
5.4440e-02,0.0742188
5.4472e-02,0.0714062
5.4504e-02,0.0728906
5.4536e-02,0.0728125
5.4568e-02,0.0732812
5.4600e-02,0.0723437
5.4632e-02,0.0717969
5.4664e-02,0.0709375
5.4696e-02,0.0700781
5.4728e-02,0.0703906
5.4760e-02,0.0704687
5.4792e-02,0.0708594
5.4824e-02,0.0703125
5.4856e-02,0.0701562
5.4888e-02,0.07
5.4920e-02,0.076875
5.4952e-02,0.0757031
5.4984e-02,0.0738281
5.5016e-02,0.0734375
5.5048e-02,0.0732812
5.5080e-02,0.0722656
5.5112e-02,0.0745312
5.5144e-02,0.0747656
5.5176e-02,0.0716406
5.5208e-02,0.070625
5.5240e-02,0.0703125
5.5272e-02,0.0703125
5.5304e-02,0.0708594
5.5336e-02,0.0704687
5.5368e-02,0.0700781
5.5400e-02,0.0705469
5.5432e-02,0.0724219
5.5464e-02,0.0722656
5.5496e-02,0.0714062
5.5528e-02,0.0725781
5.5560e-02,0.0725
5.5592e-02,0.0775781
5.5624e-02,0.0791406
5.5656e-02,0.0850781
5.5688e-02,0.0851563
5.5720e-02,0.0840625
5.5752e-02,0.0850781
5.5784e-02,0.0864844
5.5816e-02,0.0830469
5.5848e-02,0.08375
5.5880e-02,0.0824219
5.5912e-02,0.0764844
5.5944e-02,0.0732812
5.5976e-02,0.0732812
5.6008e-02,0.0751563
5.6040e-02,0.0796094
5.6072e-02,0.0797656
5.6104e-02,0.0829688
5.6136e-02,0.0858594
5.6168e-02,0.0785156
5.6200e-02,0.0776562
5.6232e-02,0.0789062
5.6264e-02,0.0784375
5.6296e-02,0.0771875
5.6328e-02,0.0754687
5.6360e-02,0.0753125
5.6392e-02,0.07625
5.6424e-02,0.0758594
5.6456e-02,0.0740625
5.6488e-02,0.0760156
5.6520e-02,0.0776562
5.6552e-02,0.0770312
5.6584e-02,0.0722656
5.6616e-02,0.0748437
5.6648e-02,0.0724219
5.6680e-02,0.0721875
5.6712e-02,0.0732031
5.6744e-02,0.0736719
5.6776e-02,0.0760156
5.6808e-02,0.0739063
5.6840e-02,0.0732812
5.6872e-02,0.0708594
5.6904e-02,0.0735156
5.6936e-02,0.0754687
5.6968e-02,0.0779687
5.7000e-02,0.0767969
5.7032e-02,0.0788281
5.7064e-02,0.0796875
5.7096e-02,0.0792969
5.7128e-02,0.0815625
5.7160e-02,0.0810937
5.7192e-02,0.083125
5.7224e-02,0.0878906
5.7256e-02,0.0899219
5.7288e-02,0.0901562
5.7320e-02,0.09
5.7352e-02,0.0878125
5.7384e-02,0.0899219
5.7416e-02,0.0900781
5.7448e-02,0.0901562
5.7480e-02,0.0916406
5.7512e-02,0.0927344
5.7544e-02,0.0998438
5.7576e-02,0.101875
5.7608e-02,0.0983594
5.7640e-02,0.100781
5.7672e-02,0.103672
5.7704e-02,0.105
5.7736e-02,0.110156
5.7768e-02,0.110625
5.7800e-02,0.109844
5.7832e-02,0.111953
5.7864e-02,0.115312
5.7896e-02,0.117031
5.7928e-02,0.130703
5.7960e-02,0.133203
5.7992e-02,0.136172
5.8024e-02,0.143281
5.8056e-02,0.149453
5.8088e-02,0.160469
5.8120e-02,0.175469
5.8152e-02,0.191562
5.8184e-02,0.196172
5.8216e-02,0.207422
5.8248e-02,0.213516
5.8280e-02,0.22625
5.8312e-02,0.236016
5.8344e-02,0.240469
5.8376e-02,0.25625
5.8408e-02,0.263125
5.8440e-02,0.262812
5.8472e-02,0.273438
5.8504e-02,0.282031
5.8536e-02,0.2925
5.8568e-02,0.299687
5.8600e-02,0.322031
5.8632e-02,0.332031
5.8664e-02,0.348516
5.8696e-02,0.366562
5.8728e-02,0.377266
5.8760e-02,0.388203
5.8792e-02,0.412187
5.8824e-02,0.429766
5.8856e-02,0.453359
5.8888e-02,0.480859
5.8920e-02,0.514609
5.8952e-02,0.542578
5.8984e-02,0.568828
5.9016e-02,0.614766
5.9048e-02,0.657422
5.9080e-02,0.70875
5.9112e-02,0.766797
5.9144e-02,0.828828
5.9176e-02,0.885234
5.9208e-02,0.953125
5.9240e-02,1.02172
5.9272e-02,1.07906
5.9304e-02,1.13859
5.9336e-02,1.20422
5.9368e-02,1.25992
5.9400e-02,1.30047
5.9432e-02,1.35
5.9464e-02,1.39258
5.9496e-02,1.41195
5.9528e-02,1.43258
5.9560e-02,1.45016
5.9592e-02,1.46258
5.9624e-02,1.47094
5.9656e-02,1.46195
5.9688e-02,1.42898
5.9720e-02,1.4025
5.9752e-02,1.36938
5.9784e-02,1.34289
5.9816e-02,1.30563
5.9848e-02,1.26562
5.9880e-02,1.21836
5.9912e-02,1.16031
5.9944e-02,1.1018
5.9976e-02,1.03664
6.0008e-02,0.967344
6.0040e-02,0.899062
6.0072e-02,0.8425
6.0104e-02,0.766094
6.0136e-02,0.693594
6.0168e-02,0.624766
6.0200e-02,0.574609
6.0232e-02,0.518672
6.0264e-02,0.465234
6.0296e-02,0.420312
6.0328e-02,0.383125
6.0360e-02,0.362969
6.0392e-02,0.343906
6.0424e-02,0.331328
6.0456e-02,0.313984
6.0488e-02,0.292188
6.0520e-02,0.289062
6.0552e-02,0.289844
6.0584e-02,0.292344
6.0616e-02,0.295859
6.0648e-02,0.304062
6.0680e-02,0.300312
6.0712e-02,0.312734
6.0744e-02,0.31375
6.0776e-02,0.330625
6.0808e-02,0.347109
6.0840e-02,0.370703
6.0872e-02,0.393594
6.0904e-02,0.401406
6.0936e-02,0.422422
6.0968e-02,0.449844
6.1000e-02,0.486641
6.1032e-02,0.526016
6.1064e-02,0.559375
6.1096e-02,0.579531
6.1128e-02,0.605156
6.1160e-02,0.654844
6.1192e-02,0.680312
6.1224e-02,0.704141
6.1256e-02,0.724219
6.1288e-02,0.725313
6.1320e-02,0.740547
6.1352e-02,0.770703
6.1384e-02,0.774453
6.1416e-02,0.776484
6.1448e-02,0.785859
6.1480e-02,0.785
6.1512e-02,0.786016
6.1544e-02,0.786328
6.1576e-02,0.767969
6.1608e-02,0.749609
6.1640e-02,0.727891
6.1672e-02,0.701719
6.1704e-02,0.690625
6.1736e-02,0.673437
6.1768e-02,0.64625
6.1800e-02,0.619375
6.1832e-02,0.586172
6.1864e-02,0.541328
6.1896e-02,0.508594
6.1928e-02,0.470625
6.1960e-02,0.428984
6.1992e-02,0.409844
6.2024e-02,0.377422
6.2056e-02,0.334844
6.2088e-02,0.308359
6.2120e-02,0.287656
6.2152e-02,0.269141
6.2184e-02,0.240859
6.2216e-02,0.228672
6.2248e-02,0.218359
6.2280e-02,0.207969
6.2312e-02,0.190234
6.2344e-02,0.18875
6.2376e-02,0.189609
6.2408e-02,0.179922
6.2440e-02,0.170781
6.2472e-02,0.171484
6.2504e-02,0.169375
6.2536e-02,0.163516
6.2568e-02,0.164531
6.2600e-02,0.164297
6.2632e-02,0.170391
6.2664e-02,0.176328
6.2696e-02,0.183906
6.2728e-02,0.186406
6.2760e-02,0.191875
6.2792e-02,0.195625
6.2824e-02,0.208438
6.2856e-02,0.215781
6.2888e-02,0.224922
6.2920e-02,0.231875
6.2952e-02,0.242188
6.2984e-02,0.255703
6.3016e-02,0.267109
6.3048e-02,0.277734
6.3080e-02,0.285078
6.3112e-02,0.282656
6.3144e-02,0.291328
6.3176e-02,0.288516
6.3208e-02,0.294844
6.3240e-02,0.293125
6.3272e-02,0.306563
6.3304e-02,0.309063
6.3336e-02,0.306797
6.3368e-02,0.314062
6.3400e-02,0.312109
6.3432e-02,0.307266
6.3464e-02,0.297813
6.3496e-02,0.288359
6.3528e-02,0.285
6.3560e-02,0.274766
6.3592e-02,0.26875
6.3624e-02,0.2575
6.3656e-02,0.250312
6.3688e-02,0.237812
6.3720e-02,0.23
6.3752e-02,0.214297
6.3784e-02,0.210078
6.3816e-02,0.192578
6.3848e-02,0.185156
6.3880e-02,0.169766
6.3912e-02,0.1575
6.3944e-02,0.149297
6.3976e-02,0.145703
6.4008e-02,0.135859
6.4040e-02,0.129687
6.4072e-02,0.121406
6.4104e-02,0.111094
6.4136e-02,0.110469
6.4168e-02,0.110078
6.4200e-02,0.110625
6.4232e-02,0.109844
6.4264e-02,0.107812
6.4296e-02,0.102812
6.4328e-02,0.103281
6.4360e-02,0.104609
6.4392e-02,0.0971094
6.4424e-02,0.0935156
6.4456e-02,0.0967969
6.4488e-02,0.100703
6.4520e-02,0.0970312
6.4552e-02,0.09875
6.4584e-02,0.0997656
6.4616e-02,0.0974219
6.4648e-02,0.0991406
6.4680e-02,0.0982031
6.4712e-02,0.0996875
6.4744e-02,0.0999219
6.4776e-02,0.100469
6.4808e-02,0.101094
6.4840e-02,0.099375
6.4872e-02,0.0923437
6.4904e-02,0.0957812
6.4936e-02,0.095
6.4968e-02,0.0934375
6.5000e-02,0.096875
6.5032e-02,0.103281
6.5064e-02,0.104062
6.5096e-02,0.105234
6.5128e-02,0.109063
6.5160e-02,0.110625
6.5192e-02,0.112734
6.5224e-02,0.129844
6.5256e-02,0.131328
6.5288e-02,0.137266
6.5320e-02,0.140234
6.5352e-02,0.152891
6.5384e-02,0.165469
6.5416e-02,0.175312
6.5448e-02,0.185312
6.5480e-02,0.205156
6.5512e-02,0.214609
6.5544e-02,0.227109
6.5576e-02,0.238125
6.5608e-02,0.255156
6.5640e-02,0.275156
6.5672e-02,0.285469
6.5704e-02,0.301094
6.5736e-02,0.315469
6.5768e-02,0.325234
6.5800e-02,0.336016
6.5832e-02,0.347344
6.5864e-02,0.359453
6.5896e-02,0.369687
6.5928e-02,0.374219
6.5960e-02,0.372734
6.5992e-02,0.372187
6.6024e-02,0.374688
6.6056e-02,0.370937
6.6088e-02,0.370859
6.6120e-02,0.369297
6.6152e-02,0.370469
6.6184e-02,0.361094
6.6216e-02,0.353906
6.6248e-02,0.349766
6.6280e-02,0.333984
6.6312e-02,0.322109
6.6344e-02,0.312266
6.6376e-02,0.303047
6.6408e-02,0.2925
6.6440e-02,0.284531
6.6472e-02,0.265313
6.6504e-02,0.249375
6.6536e-02,0.243125
6.6568e-02,0.235625
6.6600e-02,0.228672
6.6632e-02,0.211641
6.6664e-02,0.209219
6.6696e-02,0.199531
6.6728e-02,0.192031
6.6760e-02,0.191016
6.6792e-02,0.191953
6.6824e-02,0.196172
6.6856e-02,0.197734
6.6888e-02,0.201016
6.6920e-02,0.213906
6.6952e-02,0.222578
6.6984e-02,0.232812
6.7016e-02,0.23375
6.7048e-02,0.243906
6.7080e-02,0.264687
6.7112e-02,0.283828
6.7144e-02,0.299844
6.7176e-02,0.315156
6.7208e-02,0.343516
6.7240e-02,0.364297
6.7272e-02,0.385703
6.7304e-02,0.418516
6.7336e-02,0.450781
6.7368e-02,0.481172
6.7400e-02,0.506016
6.7432e-02,0.538828
6.7464e-02,0.562031
6.7496e-02,0.567813
6.7528e-02,0.601875
6.7560e-02,0.632266
6.7592e-02,0.650781
6.7624e-02,0.654531
6.7656e-02,0.668203
6.7688e-02,0.696719
6.7720e-02,0.710859
6.7752e-02,0.713437
6.7784e-02,0.710156
6.7816e-02,0.708828
6.7848e-02,0.693984
6.7880e-02,0.690156
6.7912e-02,0.683984
6.7944e-02,0.664844
6.7976e-02,0.661875
6.8008e-02,0.655625
6.8040e-02,0.642344
6.8072e-02,0.634141
6.8104e-02,0.617344
6.8136e-02,0.594688
6.8168e-02,0.564531
6.8200e-02,0.535391
6.8232e-02,0.505
6.8264e-02,0.484219
6.8296e-02,0.453359
6.8328e-02,0.435547
6.8360e-02,0.414219
6.8392e-02,0.391719
6.8424e-02,0.376484
6.8456e-02,0.353047
6.8488e-02,0.343906
6.8520e-02,0.332109
6.8552e-02,0.328516
6.8584e-02,0.31875
6.8616e-02,0.329687
6.8648e-02,0.332266
6.8680e-02,0.330859
6.8712e-02,0.341406
6.8744e-02,0.354141
6.8776e-02,0.366719
6.8808e-02,0.373437
6.8840e-02,0.394453
6.8872e-02,0.430703
6.8904e-02,0.462187
6.8936e-02,0.504453
6.8968e-02,0.54
6.9000e-02,0.578984
6.9032e-02,0.622734
6.9064e-02,0.685625
6.9096e-02,0.756875
6.9128e-02,0.824609
6.9160e-02,0.89125
6.9192e-02,0.979609
6.9224e-02,1.04961
6.9256e-02,1.1175
6.9288e-02,1.17828
6.9320e-02,1.24039
6.9352e-02,1.28844
6.9384e-02,1.33312
6.9416e-02,1.37977
6.9448e-02,1.40422
6.9480e-02,1.4325
6.9512e-02,1.44695
6.9544e-02,1.44336
6.9576e-02,1.45039
6.9608e-02,1.47313
6.9640e-02,1.45211
6.9672e-02,1.44125
6.9704e-02,1.42266
6.9736e-02,1.40133
6.9768e-02,1.36359
6.9800e-02,1.33203
6.9832e-02,1.28398
6.9864e-02,1.23672
6.9896e-02,1.16391
6.9928e-02,1.11211
6.9960e-02,1.04305
6.9992e-02,0.974141
7.0024e-02,0.899609
7.0056e-02,0.825
7.0088e-02,0.768281
7.0120e-02,0.696406
7.0152e-02,0.623125
7.0184e-02,0.558906
7.0216e-02,0.503906
7.0248e-02,0.440937
7.0280e-02,0.4
7.0312e-02,0.352969
7.0344e-02,0.31875
7.0376e-02,0.286797
7.0408e-02,0.257109
7.0440e-02,0.228906
7.0472e-02,0.206406
7.0504e-02,0.189531
7.0536e-02,0.170859
7.0568e-02,0.162422
7.0600e-02,0.149297
7.0632e-02,0.143672
7.0664e-02,0.129531
7.0696e-02,0.128125
7.0728e-02,0.118984
7.0760e-02,0.109609
7.0792e-02,0.108828
7.0824e-02,0.108125
7.0856e-02,0.107656
7.0888e-02,0.101875
7.0920e-02,0.0977344
7.0952e-02,0.0917969
7.0984e-02,0.0924219
7.1016e-02,0.0916406
7.1048e-02,0.09125
7.1080e-02,0.0919531
7.1112e-02,0.0907031
7.1144e-02,0.0897656
7.1176e-02,0.089375
7.1208e-02,0.0892969
7.1240e-02,0.0896875
7.1272e-02,0.0910937
7.1304e-02,0.0889062
7.1336e-02,0.0863281
7.1368e-02,0.0867969
7.1400e-02,0.0865625
7.1432e-02,0.0848437
7.1464e-02,0.0860937
7.1496e-02,0.0819531
7.1528e-02,0.0795313
7.1560e-02,0.0798437
7.1592e-02,0.0753906
7.1624e-02,0.0800781
7.1656e-02,0.0751563
7.1688e-02,0.0775781
7.1720e-02,0.0775781
7.1752e-02,0.0767187
7.1784e-02,0.0775
7.1816e-02,0.0789062
7.1848e-02,0.0783594
7.1880e-02,0.0766406
7.1912e-02,0.0765625
7.1944e-02,0.0739063
7.1976e-02,0.0746875
7.2008e-02,0.0705469
7.2040e-02,0.0711719
7.2072e-02,0.0714062
7.2104e-02,0.073125
7.2136e-02,0.0707813
7.2168e-02,0.0698437
7.2200e-02,0.0702344
7.2232e-02,0.0703125
7.2264e-02,0.0713281
7.2296e-02,0.0710937
7.2328e-02,0.0714062
7.2360e-02,0.0703906
7.2392e-02,0.0704687
7.2424e-02,0.0710156
7.2456e-02,0.0702344
7.2488e-02,0.0698437
7.2520e-02,0.0701562
7.2552e-02,0.0708594
7.2584e-02,0.0734375
7.2616e-02,0.0752344
7.2648e-02,0.0771094
7.2680e-02,0.0817188
7.2712e-02,0.0804687
7.2744e-02,0.078125
7.2776e-02,0.0770312
7.2808e-02,0.0800781
7.2840e-02,0.0780469
7.2872e-02,0.0780469
7.2904e-02,0.0769531
7.2936e-02,0.0732031
7.2968e-02,0.079375
7.3000e-02,0.076875
7.3032e-02,0.0764063
7.3064e-02,0.0767187
7.3096e-02,0.08125
7.3128e-02,0.0796875
7.3160e-02,0.0851563
7.3192e-02,0.0829688
7.3224e-02,0.0771094
7.3256e-02,0.0770312
7.3288e-02,0.07625
7.3320e-02,0.0751563
7.3352e-02,0.0761719
7.3384e-02,0.0821875
7.3416e-02,0.0835156
7.3448e-02,0.07625
7.3480e-02,0.0725
7.3512e-02,0.0713281
7.3544e-02,0.073125
7.3576e-02,0.0717188
7.3608e-02,0.0728906
7.3640e-02,0.0719531
7.3672e-02,0.0721094
7.3704e-02,0.0721875
7.3736e-02,0.0720312
7.3768e-02,0.0751563
7.3800e-02,0.0703906
7.3832e-02,0.0708594
7.3864e-02,0.07375
7.3896e-02,0.0747656
7.3928e-02,0.0714844
7.3960e-02,0.0746094
7.3992e-02,0.0817969
7.4024e-02,0.0785156
7.4056e-02,0.0733594
7.4088e-02,0.0775
7.4120e-02,0.0791406
7.4152e-02,0.0828906
7.4184e-02,0.0792969
7.4216e-02,0.0779687
7.4248e-02,0.0751563
7.4280e-02,0.0784375
7.4312e-02,0.0785156
7.4344e-02,0.0832031
7.4376e-02,0.0903125
7.4408e-02,0.0910937
7.4440e-02,0.0914844
7.4472e-02,0.0919531
7.4504e-02,0.0907813
7.4536e-02,0.0902344
7.4568e-02,0.0903125
7.4600e-02,0.0899219
7.4632e-02,0.0910937
7.4664e-02,0.0921875
7.4696e-02,0.0916406
7.4728e-02,0.0967187
7.4760e-02,0.0948437
7.4792e-02,0.100234
7.4824e-02,0.102031
7.4856e-02,0.104688
7.4888e-02,0.111875
7.4920e-02,0.114375
7.4952e-02,0.117422
7.4984e-02,0.128047
7.5016e-02,0.129766
7.5048e-02,0.134531
7.5080e-02,0.138359
7.5112e-02,0.142734
7.5144e-02,0.145469
7.5176e-02,0.157109
7.5208e-02,0.173203
7.5240e-02,0.18375
7.5272e-02,0.196094
7.5304e-02,0.200703
7.5336e-02,0.218047
7.5368e-02,0.226172
7.5400e-02,0.233125
7.5432e-02,0.251016
7.5464e-02,0.251641
7.5496e-02,0.253359
7.5528e-02,0.254687
7.5560e-02,0.264687
7.5592e-02,0.269687
7.5624e-02,0.280312
7.5656e-02,0.292266
7.5688e-02,0.306484
7.5720e-02,0.317734
7.5752e-02,0.339922
7.5784e-02,0.356562
7.5816e-02,0.374375
7.5848e-02,0.394453
7.5880e-02,0.427578
7.5912e-02,0.450547
7.5944e-02,0.482734
7.5976e-02,0.516953
7.6008e-02,0.557187
7.6040e-02,0.594609
7.6072e-02,0.630547
7.6104e-02,0.680625
7.6136e-02,0.735313
7.6168e-02,0.78625
7.6200e-02,0.843047
7.6232e-02,0.904297
7.6264e-02,0.972656
7.6296e-02,1.03148
7.6328e-02,1.09062
7.6360e-02,1.14422
7.6392e-02,1.19898
7.6424e-02,1.22727
7.6456e-02,1.25844
7.6488e-02,1.31953
7.6520e-02,1.35508
7.6552e-02,1.35734
7.6584e-02,1.36867
7.6616e-02,1.36445
7.6648e-02,1.36828
7.6680e-02,1.35078
7.6712e-02,1.35141
7.6744e-02,1.33133
7.6776e-02,1.31133
7.6808e-02,1.27695
7.6840e-02,1.22812
7.6872e-02,1.19148
7.6904e-02,1.16789
7.6936e-02,1.11703
7.6968e-02,1.07484
7.7000e-02,1.00078
7.7032e-02,0.943125
7.7064e-02,0.884453
7.7096e-02,0.819375
7.7128e-02,0.761172
7.7160e-02,0.685937
7.7192e-02,0.633672
7.7224e-02,0.573516
7.7256e-02,0.527344
7.7288e-02,0.470938
7.7320e-02,0.427969
7.7352e-02,0.393828
7.7384e-02,0.364297
7.7416e-02,0.343906
7.7448e-02,0.327109
7.7480e-02,0.326875
7.7512e-02,0.31125
7.7544e-02,0.294922
7.7576e-02,0.299297
7.7608e-02,0.309375
7.7640e-02,0.314453
7.7672e-02,0.312109
7.7704e-02,0.322266
7.7736e-02,0.337109
7.7768e-02,0.350703
7.7800e-02,0.373516
7.7832e-02,0.395469
7.7864e-02,0.417969
7.7896e-02,0.44375
7.7928e-02,0.481172
7.7960e-02,0.503281
7.7992e-02,0.535
7.8024e-02,0.566094
7.8056e-02,0.588359
7.8088e-02,0.612656
7.8120e-02,0.646406
7.8152e-02,0.667188
7.8184e-02,0.681719
7.8216e-02,0.687578
7.8248e-02,0.701797
7.8280e-02,0.710625
7.8312e-02,0.728438
7.8344e-02,0.730547
7.8376e-02,0.718906
7.8408e-02,0.73125
7.8440e-02,0.729141
7.8472e-02,0.727891
7.8504e-02,0.726719
7.8536e-02,0.709453
7.8568e-02,0.698125
7.8600e-02,0.669766
7.8632e-02,0.664297
7.8664e-02,0.64625
7.8696e-02,0.622187
7.8728e-02,0.595781
7.8760e-02,0.569219
7.8792e-02,0.543594
7.8824e-02,0.508594
7.8856e-02,0.482031
7.8888e-02,0.439062
7.8920e-02,0.41125
7.8952e-02,0.380937
7.8984e-02,0.344297
7.9016e-02,0.304453
7.9048e-02,0.288516
7.9080e-02,0.266172
7.9112e-02,0.247656
7.9144e-02,0.231094
7.9176e-02,0.218281
7.9208e-02,0.203047
7.9240e-02,0.189609
7.9272e-02,0.183047
7.9304e-02,0.181172
7.9336e-02,0.1725
7.9368e-02,0.171016
7.9400e-02,0.170234
7.9432e-02,0.170469
7.9464e-02,0.170703
7.9496e-02,0.173906
7.9528e-02,0.177812
7.9560e-02,0.182656
7.9592e-02,0.192266
7.9624e-02,0.198438
7.9656e-02,0.206094
7.9688e-02,0.211328
7.9720e-02,0.218516
7.9752e-02,0.227266
7.9784e-02,0.237969
7.9816e-02,0.255078
7.9848e-02,0.259531
7.9880e-02,0.270391
7.9912e-02,0.275547
7.9944e-02,0.281406
7.9976e-02,0.282812
8.0008e-02,0.283438
8.0040e-02,0.285
8.0072e-02,0.289766
8.0104e-02,0.289766
8.0136e-02,0.29
8.0168e-02,0.290156
8.0200e-02,0.288672
8.0232e-02,0.284375
8.0264e-02,0.287813
8.0296e-02,0.283594
8.0328e-02,0.275625
8.0360e-02,0.272031
8.0392e-02,0.269922
8.0424e-02,0.264922
8.0456e-02,0.253516
8.0488e-02,0.243281
8.0520e-02,0.224687
8.0552e-02,0.215391
8.0584e-02,0.207734
8.0616e-02,0.195078
8.0648e-02,0.188047
8.0680e-02,0.175234
8.0712e-02,0.168359
8.0744e-02,0.162109
8.0776e-02,0.150781
8.0808e-02,0.145078
8.0840e-02,0.134922
8.0872e-02,0.12875
8.0904e-02,0.126172
8.0936e-02,0.126562
8.0968e-02,0.111172
8.1000e-02,0.11125
8.1032e-02,0.109766
8.1064e-02,0.105469
8.1096e-02,0.108047
8.1128e-02,0.104297
8.1160e-02,0.100156
8.1192e-02,0.101484
8.1224e-02,0.104922
8.1256e-02,0.104453
8.1288e-02,0.101094
8.1320e-02,0.0940625
8.1352e-02,0.0927344
8.1384e-02,0.0957031
8.1416e-02,0.0945312
8.1448e-02,0.0948437
8.1480e-02,0.090625
8.1512e-02,0.095
8.1544e-02,0.0955469
8.1576e-02,0.0967969
8.1608e-02,0.102656
8.1640e-02,0.101719
8.1672e-02,0.0992187
8.1704e-02,0.099375
8.1736e-02,0.102344
8.1768e-02,0.1025
8.1800e-02,0.101797
8.1832e-02,0.105312
8.1864e-02,0.106484
8.1896e-02,0.114609
8.1928e-02,0.122031
8.1960e-02,0.124219
8.1992e-02,0.132812
8.2024e-02,0.137891
8.2056e-02,0.148516
8.2088e-02,0.150859
8.2120e-02,0.168125
8.2152e-02,0.176562
8.2184e-02,0.198984
8.2216e-02,0.206953
8.2248e-02,0.216562
8.2280e-02,0.23375
8.2312e-02,0.251562
8.2344e-02,0.269141
8.2376e-02,0.282578
8.2408e-02,0.294609
8.2440e-02,0.302422
8.2472e-02,0.311172
8.2504e-02,0.31875
8.2536e-02,0.337891
8.2568e-02,0.346562
8.2600e-02,0.345078
8.2632e-02,0.350703
8.2664e-02,0.352031
8.2696e-02,0.351406
8.2728e-02,0.347578
8.2760e-02,0.351953
8.2792e-02,0.347969
8.2824e-02,0.342734
8.2856e-02,0.342578
8.2888e-02,0.334375
8.2920e-02,0.326328
8.2952e-02,0.322891
8.2984e-02,0.317813
8.3016e-02,0.310312
8.3048e-02,0.305312
8.3080e-02,0.301484
8.3112e-02,0.289609
8.3144e-02,0.273125
8.3176e-02,0.266094
8.3208e-02,0.254844
8.3240e-02,0.246875
8.3272e-02,0.234453
8.3304e-02,0.228672
8.3336e-02,0.213672
8.3368e-02,0.201953
8.3400e-02,0.192969
8.3432e-02,0.189922
8.3464e-02,0.193906
8.3496e-02,0.194453
8.3528e-02,0.208516
8.3560e-02,0.223594
8.3592e-02,0.223828
8.3624e-02,0.232422
8.3656e-02,0.23625
8.3688e-02,0.251797
8.3720e-02,0.269297
8.3752e-02,0.291016
8.3784e-02,0.309844
8.3816e-02,0.326328
8.3848e-02,0.345
8.3880e-02,0.375625
8.3912e-02,0.401094
8.3944e-02,0.427188
8.3976e-02,0.450547
8.4008e-02,0.488906
8.4040e-02,0.514453
8.4072e-02,0.538516
8.4104e-02,0.567266
8.4136e-02,0.591172
8.4168e-02,0.608203
8.4200e-02,0.619609
8.4232e-02,0.646875
8.4264e-02,0.657734
8.4296e-02,0.663359
8.4328e-02,0.666328
8.4360e-02,0.666016
8.4392e-02,0.669453
8.4424e-02,0.668281
8.4456e-02,0.672969
8.4488e-02,0.667109
8.4520e-02,0.666016
8.4552e-02,0.661641
8.4584e-02,0.659141
8.4616e-02,0.649453
8.4648e-02,0.640547
8.4680e-02,0.627734
8.4712e-02,0.610391
8.4744e-02,0.585312
8.4776e-02,0.577813
8.4808e-02,0.549922
8.4840e-02,0.52375
8.4872e-02,0.492734
8.4904e-02,0.458984
8.4936e-02,0.439141
8.4968e-02,0.407422
8.5000e-02,0.388047
8.5032e-02,0.374297
8.5064e-02,0.360625
8.5096e-02,0.351016
8.5128e-02,0.350781
8.5160e-02,0.349766
8.5192e-02,0.340078
8.5224e-02,0.348672
8.5256e-02,0.354453
8.5288e-02,0.355
8.5320e-02,0.368516
8.5352e-02,0.390859
8.5384e-02,0.414453
8.5416e-02,0.437578
8.5448e-02,0.471484
8.5480e-02,0.500625
8.5512e-02,0.541875
8.5544e-02,0.597656
8.5576e-02,0.659062
8.5608e-02,0.717578
8.5640e-02,0.770859
8.5672e-02,0.833984
8.5704e-02,0.903437
8.5736e-02,0.959062
8.5768e-02,1.02383
8.5800e-02,1.0982
8.5832e-02,1.16711
8.5864e-02,1.20047
8.5896e-02,1.235
8.5928e-02,1.29328
8.5960e-02,1.30625
8.5992e-02,1.33148
8.6024e-02,1.35516
8.6056e-02,1.36219
8.6088e-02,1.36008
8.6120e-02,1.36602
8.6152e-02,1.37102
8.6184e-02,1.38102
8.6216e-02,1.36977
8.6248e-02,1.32797
8.6280e-02,1.29695
8.6312e-02,1.27852
8.6344e-02,1.26187
8.6376e-02,1.22234
8.6408e-02,1.15852
8.6440e-02,1.10555
8.6472e-02,1.06109
8.6504e-02,0.996563
8.6536e-02,0.933437
8.6568e-02,0.862109
8.6600e-02,0.799063
8.6632e-02,0.730156
8.6664e-02,0.664531
8.6696e-02,0.602266
8.6728e-02,0.541562
8.6760e-02,0.474687
8.6792e-02,0.42375
8.6824e-02,0.390156
8.6856e-02,0.344453
8.6888e-02,0.306016
8.6920e-02,0.274531
8.6952e-02,0.244219
8.6984e-02,0.224141
8.7016e-02,0.202422
8.7048e-02,0.182969
8.7080e-02,0.163359
8.7112e-02,0.15
8.7144e-02,0.140156
8.7176e-02,0.130469
8.7208e-02,0.120625
8.7240e-02,0.111172
8.7272e-02,0.110625
8.7304e-02,0.110078
8.7336e-02,0.111094
8.7368e-02,0.102969
8.7400e-02,0.102344
8.7432e-02,0.101719
8.7464e-02,0.100547
8.7496e-02,0.0964063
8.7528e-02,0.0940625
8.7560e-02,0.0910937
8.7592e-02,0.0910156
8.7624e-02,0.0909375
8.7656e-02,0.09
8.7688e-02,0.0898438
8.7720e-02,0.089375
8.7752e-02,0.0842188
8.7784e-02,0.0874219
8.7816e-02,0.0873438
8.7848e-02,0.0898438
8.7880e-02,0.0857812
8.7912e-02,0.0835156
8.7944e-02,0.0822656
8.7976e-02,0.083125
8.8008e-02,0.0869531
8.8040e-02,0.0842188
8.8072e-02,0.0807031
8.8104e-02,0.0804687
8.8136e-02,0.0770312
8.8168e-02,0.0789062
8.8200e-02,0.0778906
8.8232e-02,0.0776562
8.8264e-02,0.0775781
8.8296e-02,0.0751563
8.8328e-02,0.0714844
8.8360e-02,0.0703125
8.8392e-02,0.0703906
8.8424e-02,0.0701562
8.8456e-02,0.0710937
8.8488e-02,0.0724219
8.8520e-02,0.0728906
8.8552e-02,0.0744531
8.8584e-02,0.0708594
8.8616e-02,0.0725781
8.8648e-02,0.0735937
8.8680e-02,0.0714062
8.8712e-02,0.0708594
8.8744e-02,0.0705469
8.8776e-02,0.0717188
8.8808e-02,0.0714844
8.8840e-02,0.0715625
8.8872e-02,0.075
8.8904e-02,0.0757812
8.8936e-02,0.0710937
8.8968e-02,0.0714062
8.9000e-02,0.0702344
8.9032e-02,0.0721094
8.9064e-02,0.071875
8.9096e-02,0.071875
8.9128e-02,0.0728906
8.9160e-02,0.0789062
8.9192e-02,0.0828906
8.9224e-02,0.0846094
8.9256e-02,0.0825781
8.9288e-02,0.083125
8.9320e-02,0.0805469
8.9352e-02,0.0779687
8.9384e-02,0.0749219
8.9416e-02,0.0736719
8.9448e-02,0.0777344
8.9480e-02,0.08
8.9512e-02,0.0788281
8.9544e-02,0.0789062
8.9576e-02,0.0746875
8.9608e-02,0.0750781
8.9640e-02,0.0796875
8.9672e-02,0.0778125
8.9704e-02,0.0796875
8.9736e-02,0.0785938
8.9768e-02,0.0746094
8.9800e-02,0.0753906
8.9832e-02,0.0767187
8.9864e-02,0.078125
8.9896e-02,0.07875
8.9928e-02,0.0778906
8.9960e-02,0.0808594
8.9992e-02,0.080625
9.0024e-02,0.0767187
9.0056e-02,0.0775
9.0088e-02,0.0740625
9.0120e-02,0.075
9.0152e-02,0.0757812
9.0184e-02,0.0738281
9.0216e-02,0.078125
9.0248e-02,0.075625
9.0280e-02,0.0708594
9.0312e-02,0.0728906
9.0344e-02,0.0747656
9.0376e-02,0.0739063
9.0408e-02,0.0746875
9.0440e-02,0.0735156
9.0472e-02,0.0763281
9.0504e-02,0.0825781
9.0536e-02,0.0819531
9.0568e-02,0.0809375
9.0600e-02,0.0824219
9.0632e-02,0.0849219
9.0664e-02,0.0902344
9.0696e-02,0.09
9.0728e-02,0.0896875
9.0760e-02,0.0898438
9.0792e-02,0.0913281
9.0824e-02,0.0914844
9.0856e-02,0.0923437
9.0888e-02,0.0939844
9.0920e-02,0.0940625
9.0952e-02,0.0922656
9.0984e-02,0.0934375
9.1016e-02,0.0955469
9.1048e-02,0.103125
9.1080e-02,0.103906
9.1112e-02,0.105547
9.1144e-02,0.110781
9.1176e-02,0.110391
9.1208e-02,0.112422
9.1240e-02,0.112656
9.1272e-02,0.117891
9.1304e-02,0.124375
9.1336e-02,0.129922
9.1368e-02,0.133047
9.1400e-02,0.147969
9.1432e-02,0.157031
9.1464e-02,0.170156
9.1496e-02,0.173281
9.1528e-02,0.177969
9.1560e-02,0.189922
9.1592e-02,0.206641
9.1624e-02,0.216016
9.1656e-02,0.228203
9.1688e-02,0.234141
9.1720e-02,0.236094
9.1752e-02,0.243828
9.1784e-02,0.252656
9.1816e-02,0.254687
9.1848e-02,0.264844
9.1880e-02,0.266328
9.1912e-02,0.278281
9.1944e-02,0.291875
9.1976e-02,0.300781
9.2008e-02,0.313516
9.2040e-02,0.326875
9.2072e-02,0.351562
9.2104e-02,0.372187
9.2136e-02,0.391797
9.2168e-02,0.419219
9.2200e-02,0.447891
9.2232e-02,0.482891
9.2264e-02,0.515625
9.2296e-02,0.541406
9.2328e-02,0.583281
9.2360e-02,0.635703
9.2392e-02,0.682031
9.2424e-02,0.723672
9.2456e-02,0.784375
9.2488e-02,0.821953
9.2520e-02,0.882656
9.2552e-02,0.945078
9.2584e-02,0.998594
9.2616e-02,1.06211
9.2648e-02,1.10297
9.2680e-02,1.1493
9.2712e-02,1.19133
9.2744e-02,1.23375
9.2776e-02,1.26219
9.2808e-02,1.27977
9.2840e-02,1.29953
9.2872e-02,1.28906
9.2904e-02,1.30906
9.2936e-02,1.2968
9.2968e-02,1.27305
9.3000e-02,1.2675
9.3032e-02,1.24789
9.3064e-02,1.23023
9.3096e-02,1.20734
9.3128e-02,1.19211
9.3160e-02,1.15969
9.3192e-02,1.11062
9.3224e-02,1.07656
9.3256e-02,1.03164
9.3288e-02,0.987266
9.3320e-02,0.927422
9.3352e-02,0.886797
9.3384e-02,0.833672
9.3416e-02,0.762734
9.3448e-02,0.702109
9.3480e-02,0.639922
9.3512e-02,0.591484
9.3544e-02,0.5425
9.3576e-02,0.497891
9.3608e-02,0.454063
9.3640e-02,0.424922
9.3672e-02,0.396484
9.3704e-02,0.372656
9.3736e-02,0.34875
9.3768e-02,0.3375
9.3800e-02,0.318672
9.3832e-02,0.324219
9.3864e-02,0.321172
9.3896e-02,0.317813
9.3928e-02,0.329375
9.3960e-02,0.341719
9.3992e-02,0.347969
9.4024e-02,0.364375
9.4056e-02,0.378359
9.4088e-02,0.400234
9.4120e-02,0.424297
9.4152e-02,0.455469
9.4184e-02,0.483906
9.4216e-02,0.508125
9.4248e-02,0.535859
9.4280e-02,0.560859
9.4312e-02,0.593203
9.4344e-02,0.624844
9.4376e-02,0.6475
9.4408e-02,0.675469
9.4440e-02,0.683281
9.4472e-02,0.693047
9.4504e-02,0.708906
9.4536e-02,0.7
9.4568e-02,0.713437
9.4600e-02,0.696094
9.4632e-02,0.710703
9.4664e-02,0.701484
9.4696e-02,0.689766
9.4728e-02,0.695312
9.4760e-02,0.685547
9.4792e-02,0.678516
9.4824e-02,0.661094
9.4856e-02,0.637656
9.4888e-02,0.630937
9.4920e-02,0.626328
9.4952e-02,0.593984
9.4984e-02,0.567344
9.5016e-02,0.541484
9.5048e-02,0.517266
9.5080e-02,0.485313
9.5112e-02,0.443281
9.5144e-02,0.408672
9.5176e-02,0.387031
9.5208e-02,0.358359
9.5240e-02,0.332812
9.5272e-02,0.304297
9.5304e-02,0.280703
9.5336e-02,0.261719
9.5368e-02,0.246406
9.5400e-02,0.229062
9.5432e-02,0.211719
9.5464e-02,0.205703
9.5496e-02,0.205
9.5528e-02,0.203672
9.5560e-02,0.186094
9.5592e-02,0.184531
9.5624e-02,0.179062
9.5656e-02,0.175234
9.5688e-02,0.173672
9.5720e-02,0.179297
9.5752e-02,0.186875
9.5784e-02,0.194922
9.5816e-02,0.203281
9.5848e-02,0.211406
9.5880e-02,0.215
9.5912e-02,0.224297
9.5944e-02,0.228281
9.5976e-02,0.237266
9.6008e-02,0.242188
9.6040e-02,0.252656
9.6072e-02,0.261484
9.6104e-02,0.272344
9.6136e-02,0.282344
9.6168e-02,0.27375
9.6200e-02,0.271875
9.6232e-02,0.277187
9.6264e-02,0.289375
9.6296e-02,0.289141
9.6328e-02,0.279766
9.6360e-02,0.284375
9.6392e-02,0.279609
9.6424e-02,0.283203
9.6456e-02,0.269922
9.6488e-02,0.270156
9.6520e-02,0.267656
9.6552e-02,0.257734
9.6584e-02,0.254609
9.6616e-02,0.248906
9.6648e-02,0.246406
9.6680e-02,0.238047
9.6712e-02,0.228359
9.6744e-02,0.217422
9.6776e-02,0.208125
9.6808e-02,0.202891
9.6840e-02,0.190469
9.6872e-02,0.187578
9.6904e-02,0.175625
9.6936e-02,0.166641
9.6968e-02,0.158594
9.7000e-02,0.148828
9.7032e-02,0.144219
9.7064e-02,0.132969
9.7096e-02,0.129687
9.7128e-02,0.129141
9.7160e-02,0.119609
9.7192e-02,0.115078
9.7224e-02,0.112031
9.7256e-02,0.109922
9.7288e-02,0.106953
9.7320e-02,0.108047
9.7352e-02,0.102734
9.7384e-02,0.0996875
9.7416e-02,0.0970312
9.7448e-02,0.0942188
9.7480e-02,0.101484
9.7512e-02,0.096875
9.7544e-02,0.0971094
9.7576e-02,0.0963281
9.7608e-02,0.102891
9.7640e-02,0.102187
9.7672e-02,0.102891
9.7704e-02,0.106328
9.7736e-02,0.105156
9.7768e-02,0.10875
9.7800e-02,0.104453
9.7832e-02,0.108047
9.7864e-02,0.104688
9.7896e-02,0.105312
9.7928e-02,0.110078
9.7960e-02,0.110625
9.7992e-02,0.110937
9.8024e-02,0.113594
9.8056e-02,0.113203
9.8088e-02,0.117734
9.8120e-02,0.126875
9.8152e-02,0.133203
9.8184e-02,0.140859
9.8216e-02,0.147188
9.8248e-02,0.16375
9.8280e-02,0.170312
9.8312e-02,0.179531
9.8344e-02,0.188672
9.8376e-02,0.204922
9.8408e-02,0.2275
9.8440e-02,0.242031
9.8472e-02,0.255156
9.8504e-02,0.264609
9.8536e-02,0.276328
9.8568e-02,0.284844
9.8600e-02,0.301016
9.8632e-02,0.310625
9.8664e-02,0.316172
9.8696e-02,0.326875
9.8728e-02,0.336016
9.8760e-02,0.340234
9.8792e-02,0.340703
9.8824e-02,0.343516
9.8856e-02,0.344531
9.8888e-02,0.351875
9.8920e-02,0.351797
9.8952e-02,0.345547
9.8984e-02,0.350234
9.9016e-02,0.343828
9.9048e-02,0.334609
9.9080e-02,0.340937
9.9112e-02,0.335625
9.9144e-02,0.330547
9.9176e-02,0.322344
9.9208e-02,0.316406
9.9240e-02,0.30875
9.9272e-02,0.293672
9.9304e-02,0.281094
9.9336e-02,0.265781
9.9368e-02,0.251797
9.9400e-02,0.248594
9.9432e-02,0.235156
9.9464e-02,0.231875
9.9496e-02,0.231797
9.9528e-02,0.228516
9.9560e-02,0.214844
9.9592e-02,0.211562
9.9624e-02,0.219219
9.9656e-02,0.22
9.9688e-02,0.218359
9.9720e-02,0.220234
9.9752e-02,0.233437
9.9784e-02,0.241484
9.9816e-02,0.255703
9.9848e-02,0.273828
9.9880e-02,0.280312
9.9912e-02,0.298516
9.9944e-02,0.313125
9.9976e-02,0.334375
1.0001e-01,0.368281
1.0004e-01,0.397891
1.0007e-01,0.421797
1.0010e-01,0.452656
1.0014e-01,0.467578
1.0017e-01,0.494609
1.0020e-01,0.509219
1.0023e-01,0.536172
1.0026e-01,0.548125
1.0030e-01,0.574766
1.0033e-01,0.593281
1.0036e-01,0.618437
1.0039e-01,0.629063
1.0042e-01,0.633828
1.0046e-01,0.636172
1.0049e-01,0.643125
1.0052e-01,0.646953
1.0055e-01,0.647891
1.0058e-01,0.652891
1.0062e-01,0.654844
1.0065e-01,0.652578
1.0068e-01,0.641563
1.0071e-01,0.633594
1.0074e-01,0.635078
1.0078e-01,0.619687
1.0081e-01,0.611641
1.0084e-01,0.593906
1.0087e-01,0.585859
1.0090e-01,0.570937
1.0094e-01,0.551641
1.0097e-01,0.540234
1.0100e-01,0.525781
1.0103e-01,0.487734
1.0106e-01,0.462891
1.0110e-01,0.439219
1.0113e-01,0.427188
1.0116e-01,0.411719
1.0119e-01,0.38875
1.0122e-01,0.377969
1.0126e-01,0.368984
1.0129e-01,0.361484
1.0132e-01,0.368359
1.0135e-01,0.376406
1.0138e-01,0.371563
1.0142e-01,0.386953
1.0145e-01,0.397344
1.0148e-01,0.415156
1.0151e-01,0.435391
1.0154e-01,0.464141
1.0158e-01,0.491328
1.0161e-01,0.517813
1.0164e-01,0.553359
1.0167e-01,0.591016
1.0170e-01,0.644141
1.0174e-01,0.694063
1.0177e-01,0.758672
1.0180e-01,0.808359
1.0183e-01,0.870078
1.0186e-01,0.934219
1.0190e-01,0.990469
1.0193e-01,1.03297
1.0196e-01,1.08281
1.0199e-01,1.13539
1.0202e-01,1.18781
1.0206e-01,1.22336
1.0209e-01,1.24703
1.0212e-01,1.24992
1.0215e-01,1.26234
1.0218e-01,1.30375
1.0222e-01,1.32516
1.0225e-01,1.32148
1.0228e-01,1.30297
1.0231e-01,1.29289
1.0234e-01,1.28594
1.0238e-01,1.28258
1.0241e-01,1.27086
1.0244e-01,1.25977
1.0247e-01,1.22789
1.0250e-01,1.1793
1.0254e-01,1.14336
1.0257e-01,1.09172
1.0260e-01,1.05648
1.0263e-01,0.994922
1.0266e-01,0.957344
1.0270e-01,0.895391
1.0273e-01,0.831406
1.0276e-01,0.768984
1.0279e-01,0.708672
1.0282e-01,0.658672
1.0286e-01,0.616328
1.0289e-01,0.563203
1.0292e-01,0.498594
1.0295e-01,0.437344
1.0298e-01,0.396484
1.0302e-01,0.354922
1.0305e-01,0.308984
1.0308e-01,0.273516
1.0311e-01,0.247422
1.0314e-01,0.229297
1.0318e-01,0.208438
1.0321e-01,0.185234
1.0324e-01,0.168203
1.0327e-01,0.157266
1.0330e-01,0.148516
1.0334e-01,0.140234
1.0337e-01,0.130703
1.0340e-01,0.127734
1.0343e-01,0.122109
1.0346e-01,0.110156
1.0350e-01,0.109922
1.0353e-01,0.1075
1.0356e-01,0.102187
1.0359e-01,0.0971094
1.0362e-01,0.0941406
1.0366e-01,0.0942969
1.0369e-01,0.0917188
1.0372e-01,0.09125
1.0375e-01,0.0903906
1.0378e-01,0.0900781
1.0382e-01,0.0889844
1.0385e-01,0.0896094
1.0388e-01,0.0901562
1.0391e-01,0.0894531
1.0394e-01,0.0871094
1.0398e-01,0.0835937
1.0401e-01,0.0835156
1.0404e-01,0.08625
1.0407e-01,0.0803125
1.0410e-01,0.0802344
1.0414e-01,0.0749219
1.0417e-01,0.0792187
1.0420e-01,0.08
1.0423e-01,0.0792187
1.0426e-01,0.0784375
1.0430e-01,0.0724219
1.0433e-01,0.0764844
1.0436e-01,0.0813281
1.0439e-01,0.0776562
1.0442e-01,0.0730469
1.0446e-01,0.0735937
1.0449e-01,0.071875
1.0452e-01,0.0764844
1.0455e-01,0.0715625
1.0458e-01,0.0721094
1.0462e-01,0.0708594
1.0465e-01,0.0703906
1.0468e-01,0.0699219
1.0471e-01,0.0703906
1.0474e-01,0.0704687
1.0478e-01,0.0703125
1.0481e-01,0.0703125
1.0484e-01,0.0703125
1.0487e-01,0.0704687
1.0490e-01,0.0709375
1.0494e-01,0.07
1.0497e-01,0.0699219
1.0500e-01,0.0704687
1.0503e-01,0.0704687
1.0506e-01,0.0747656
1.0510e-01,0.0735937
1.0513e-01,0.0703125
1.0516e-01,0.0714844
1.0519e-01,0.0704687
1.0522e-01,0.0707031
1.0526e-01,0.0721094
1.0529e-01,0.0716406
1.0532e-01,0.0746094
1.0535e-01,0.0739063
1.0538e-01,0.0703906
1.0542e-01,0.070625
1.0545e-01,0.0703906
1.0548e-01,0.0703906
1.0551e-01,0.0707031
1.0554e-01,0.0701562
1.0558e-01,0.0702344
1.0561e-01,0.0698437
1.0564e-01,0.0703906
1.0567e-01,0.0727344
1.0570e-01,0.0716406
1.0574e-01,0.0708594
1.0577e-01,0.0702344
1.0580e-01,0.0735156
1.0583e-01,0.0741406
1.0586e-01,0.0805469
1.0590e-01,0.0797656
1.0593e-01,0.0830469
1.0596e-01,0.0823437
1.0599e-01,0.0817969
1.0602e-01,0.0815625
1.0606e-01,0.0883594
1.0609e-01,0.0854687
1.0612e-01,0.0897656
1.0615e-01,0.089375
1.0618e-01,0.0895313
1.0622e-01,0.09
1.0625e-01,0.0966406
1.0628e-01,0.104609
1.0631e-01,0.115312
1.0634e-01,0.128203
1.0638e-01,0.155625
1.0641e-01,0.182109
1.0644e-01,0.248437
1.0647e-01,0.322969
1.0650e-01,0.418594
1.0654e-01,0.531172
1.0657e-01,0.675547
1.0660e-01,0.824219
1.0663e-01,0.959375
1.0666e-01,1.05758
1.0670e-01,1.11742
1.0673e-01,1.1593
1.0676e-01,1.16047
1.0679e-01,1.11945
1.0682e-01,1.04547
1.0686e-01,0.950781
1.0689e-01,0.843281
1.0692e-01,0.736563
1.0695e-01,0.637031
1.0698e-01,0.564453
1.0702e-01,0.513125
1.0705e-01,0.495078
1.0708e-01,0.505234
1.0711e-01,0.523359
1.0714e-01,0.556094
1.0718e-01,0.599453
1.0721e-01,0.604531


