Model,MSO2024
Firmware Version,1.52

Point Format,Y
Horizontal Units,S
Horizontal Scale,0.01
Sample Interval,3.2e-05
Filter Frequency,2e+08
Record Length,3125
Gating,0.0% to 100.0%
Probe Attenuation,1
Vertical Units,V
Vertical Offset,0
Vertical Scale,0.1
Label,
TIME,CH1
9.8400e-03,0.0495781
9.8720e-03,0.0497656
9.9040e-03,0.0527344
9.9360e-03,0.0521094
9.9680e-03,0.0544688
1.0000e-02,0.0548125
1.0032e-02,0.055375
1.0064e-02,0.0567813
1.0096e-02,0.0569844
1.0128e-02,0.0571406
1.0160e-02,0.0564375
1.0192e-02,0.0608438
1.0224e-02,0.0588281
1.0256e-02,0.0626719
1.0288e-02,0.0651094
1.0320e-02,0.0639375
1.0352e-02,0.0633281
1.0384e-02,0.06725
1.0416e-02,0.0668906
1.0448e-02,0.0685625
1.0480e-02,0.0723125
1.0512e-02,0.0726094
1.0544e-02,0.0759063
1.0576e-02,0.0754844
1.0608e-02,0.0759531
1.0640e-02,0.0769844
1.0672e-02,0.0796875
1.0704e-02,0.0786094
1.0736e-02,0.0828125
1.0768e-02,0.0830625
1.0800e-02,0.0851875
1.0832e-02,0.0855
1.0864e-02,0.085125
1.0896e-02,0.0840156
1.0928e-02,0.0825469
1.0960e-02,0.07875
1.0992e-02,0.0789844
1.1024e-02,0.0798125
1.1056e-02,0.0780938
1.1088e-02,0.0781406
1.1120e-02,0.0795156
1.1152e-02,0.0784531
1.1184e-02,0.0741875
1.1216e-02,0.0740625
1.1248e-02,0.0735938
1.1280e-02,0.0713438
1.1312e-02,0.0670781
1.1344e-02,0.0637188
1.1376e-02,0.0647031
1.1408e-02,0.0612344
1.1440e-02,0.0588281
1.1472e-02,0.0547813
1.1504e-02,0.0540313
1.1536e-02,0.0503906
1.1568e-02,0.0508281
1.1600e-02,0.0492344
1.1632e-02,0.0474531
1.1664e-02,0.0473906
1.1696e-02,0.0444375
1.1728e-02,0.0419375
1.1760e-02,0.0407969
1.1792e-02,0.0410781
1.1824e-02,0.04225
1.1856e-02,0.0426875
1.1888e-02,0.0387344
1.1920e-02,0.0380938
1.1952e-02,0.0372188
1.1984e-02,0.0386094
1.2016e-02,0.0395938
1.2048e-02,0.0390938
1.2080e-02,0.0370781
1.2112e-02,0.0354063
1.2144e-02,0.0331094
1.2176e-02,0.0332188
1.2208e-02,0.0327813
1.2240e-02,0.0349688
1.2272e-02,0.0344063
1.2304e-02,0.034625
1.2336e-02,0.0340938
1.2368e-02,0.0351719
1.2400e-02,0.0335781
1.2432e-02,0.0318906
1.2464e-02,0.0318281
1.2496e-02,0.0328438
1.2528e-02,0.0334531
1.2560e-02,0.0355
1.2592e-02,0.0347969
1.2624e-02,0.0343281
1.2656e-02,0.0354688
1.2688e-02,0.036875
1.2720e-02,0.03725
1.2752e-02,0.0366094
1.2784e-02,0.0353594
1.2816e-02,0.0344688
1.2848e-02,0.0358438
1.2880e-02,0.0370469
1.2912e-02,0.0349688
1.2944e-02,0.0350313
1.2976e-02,0.0339219
1.3008e-02,0.0346719
1.3040e-02,0.0359531
1.3072e-02,0.0359375
1.3104e-02,0.0360469
1.3136e-02,0.0360469
1.3168e-02,0.0344063
1.3200e-02,0.0356094
1.3232e-02,0.0352344
1.3264e-02,0.0359375
1.3296e-02,0.0357188
1.3328e-02,0.0356563
1.3360e-02,0.0362969
1.3392e-02,0.0344219
1.3424e-02,0.0347344
1.3456e-02,0.0334844
1.3488e-02,0.033875
1.3520e-02,0.0345156
1.3552e-02,0.0362188
1.3584e-02,0.0360313
1.3616e-02,0.03525
1.3648e-02,0.0348125
1.3680e-02,0.0328594
1.3712e-02,0.0332188
1.3744e-02,0.0322969
1.3776e-02,0.0321094
1.3808e-02,0.0333125
1.3840e-02,0.0320625
1.3872e-02,0.0317656
1.3904e-02,0.03025
1.3936e-02,0.0316406
1.3968e-02,0.0317031
1.4000e-02,0.0299844
1.4032e-02,0.0317656
1.4064e-02,0.0301875
1.4096e-02,0.0305781
1.4128e-02,0.0297031
1.4160e-02,0.0304688
1.4192e-02,0.0298125
1.4224e-02,0.0285625
1.4256e-02,0.0311094
1.4288e-02,0.0319531
1.4320e-02,0.0305313
1.4352e-02,0.0306563
1.4384e-02,0.0311406
1.4416e-02,0.0303281
1.4448e-02,0.0305938
1.4480e-02,0.0293281
1.4512e-02,0.0284688
1.4544e-02,0.0290156
1.4576e-02,0.0296094
1.4608e-02,0.0284375
1.4640e-02,0.0274688
1.4672e-02,0.0266875
1.4704e-02,0.0282344
1.4736e-02,0.0273438
1.4768e-02,0.0287969
1.4800e-02,0.0290313
1.4832e-02,0.0290625
1.4864e-02,0.0279531
1.4896e-02,0.0287969
1.4928e-02,0.0278438
1.4960e-02,0.0297969
1.4992e-02,0.0297656
1.5024e-02,0.0309844
1.5056e-02,0.0310156
1.5088e-02,0.0310469
1.5120e-02,0.0304375
1.5152e-02,0.0311719
1.5184e-02,0.0286406
1.5216e-02,0.0287656
1.5248e-02,0.0293281
1.5280e-02,0.0285156
1.5312e-02,0.0279688
1.5344e-02,0.0280625
1.5376e-02,0.028375
1.5408e-02,0.028625
1.5440e-02,0.0282969
1.5472e-02,0.0281094
1.5504e-02,0.02625
1.5536e-02,0.0275781
1.5568e-02,0.0285938
1.5600e-02,0.0281875
1.5632e-02,0.0288125
1.5664e-02,0.0284531
1.5696e-02,0.0280938
1.5728e-02,0.0297813
1.5760e-02,0.0289844
1.5792e-02,0.0299375
1.5824e-02,0.0301719
1.5856e-02,0.0287656
1.5888e-02,0.02825
1.5920e-02,0.0282656
1.5952e-02,0.0282813
1.5984e-02,0.0280781
1.6016e-02,0.0283594
1.6048e-02,0.028625
1.6080e-02,0.0282969
1.6112e-02,0.0284375
1.6144e-02,0.0296094
1.6176e-02,0.0283125
1.6208e-02,0.0279531
1.6240e-02,0.0276406
1.6272e-02,0.0289844
1.6304e-02,0.0281094
1.6336e-02,0.029375
1.6368e-02,0.0306875
1.6400e-02,0.0309375
1.6432e-02,0.0293438
1.6464e-02,0.0296094
1.6496e-02,0.0283906
1.6528e-02,0.0284531
1.6560e-02,0.0281406
1.6592e-02,0.0279219
1.6624e-02,0.0280469
1.6656e-02,0.0279688
1.6688e-02,0.0288125
1.6720e-02,0.0295313
1.6752e-02,0.0276875
1.6784e-02,0.0281875
1.6816e-02,0.0279375
1.6848e-02,0.03
1.6880e-02,0.0287188
1.6912e-02,0.02925
1.6944e-02,0.0282656
1.6976e-02,0.0283906
1.7008e-02,0.0291719
1.7040e-02,0.0282031
1.7072e-02,0.0291406
1.7104e-02,0.0279219
1.7136e-02,0.0282656
1.7168e-02,0.0290781
1.7200e-02,0.0282344
1.7232e-02,0.02825
1.7264e-02,0.0281563
1.7296e-02,0.0277656
1.7328e-02,0.028625
1.7360e-02,0.0305781
1.7392e-02,0.0316094
1.7424e-02,0.031375
1.7456e-02,0.0316563
1.7488e-02,0.0313125
1.7520e-02,0.0309531
1.7552e-02,0.0307344
1.7584e-02,0.0310938
1.7616e-02,0.0302813
1.7648e-02,0.0301875
1.7680e-02,0.0292813
1.7712e-02,0.030625
1.7744e-02,0.030625
1.7776e-02,0.0308125
1.7808e-02,0.0308438
1.7840e-02,0.0308125
1.7872e-02,0.0306563
1.7904e-02,0.0317813
1.7936e-02,0.0318125
1.7968e-02,0.0318125
1.8000e-02,0.0315
1.8032e-02,0.0298594
1.8064e-02,0.0315156
1.8096e-02,0.0319375
1.8128e-02,0.0320938
1.8160e-02,0.0320469
1.8192e-02,0.0322656
1.8224e-02,0.0323906
1.8256e-02,0.0321406
1.8288e-02,0.0320938
1.8320e-02,0.0330938
1.8352e-02,0.0319844
1.8384e-02,0.0328125
1.8416e-02,0.0335469
1.8448e-02,0.0353906
1.8480e-02,0.0359688
1.8512e-02,0.03625
1.8544e-02,0.0365469
1.8576e-02,0.0344063
1.8608e-02,0.03725
1.8640e-02,0.0365156
1.8672e-02,0.0365781
1.8704e-02,0.0358594
1.8736e-02,0.0354219
1.8768e-02,0.0363438
1.8800e-02,0.0382656
1.8832e-02,0.0359219
1.8864e-02,0.0359375
1.8896e-02,0.0368438
1.8928e-02,0.0360469
1.8960e-02,0.0354844
1.8992e-02,0.0361875
1.9024e-02,0.0361875
1.9056e-02,0.037375
1.9088e-02,0.0376719
1.9120e-02,0.0378594
1.9152e-02,0.0407031
1.9184e-02,0.0424219
1.9216e-02,0.0445781
1.9248e-02,0.0464688
1.9280e-02,0.0447656
1.9312e-02,0.0450938
1.9344e-02,0.0466094
1.9376e-02,0.0490469
1.9408e-02,0.0490156
1.9440e-02,0.0484063
1.9472e-02,0.05
1.9504e-02,0.0484688
1.9536e-02,0.0511563
1.9568e-02,0.0527656
1.9600e-02,0.0569063
1.9632e-02,0.0564844
1.9664e-02,0.0587188
1.9696e-02,0.058625
1.9728e-02,0.0610313
1.9760e-02,0.0624688
1.9792e-02,0.0641719
1.9824e-02,0.0659375
1.9856e-02,0.068875
1.9888e-02,0.0744219
1.9920e-02,0.0789375
1.9952e-02,0.0842344
1.9984e-02,0.0867344
2.0016e-02,0.0903125
2.0048e-02,0.0902813
2.0080e-02,0.0965156
2.0112e-02,0.0984063
2.0144e-02,0.103375
2.0176e-02,0.107172
2.0208e-02,0.110266
2.0240e-02,0.116469
2.0272e-02,0.126781
2.0304e-02,0.129781
2.0336e-02,0.136672
2.0368e-02,0.132641
2.0400e-02,0.135688
2.0432e-02,0.141516
2.0464e-02,0.139328
2.0496e-02,0.141328
2.0528e-02,0.143844
2.0560e-02,0.143672
2.0592e-02,0.144109
2.0624e-02,0.143984
2.0656e-02,0.140859
2.0688e-02,0.145609
2.0720e-02,0.151406
2.0752e-02,0.152563
2.0784e-02,0.160938
2.0816e-02,0.167516
2.0848e-02,0.170906
2.0880e-02,0.178016
2.0912e-02,0.181906
2.0944e-02,0.196453
2.0976e-02,0.208031
2.1008e-02,0.218609
2.1040e-02,0.23
2.1072e-02,0.250078
2.1104e-02,0.263578
2.1136e-02,0.276016
2.1168e-02,0.291203
2.1200e-02,0.304672
2.1232e-02,0.322016
2.1264e-02,0.336891
2.1296e-02,0.348844
2.1328e-02,0.357953
2.1360e-02,0.367813
2.1392e-02,0.381406
2.1424e-02,0.384688
2.1456e-02,0.387406
2.1488e-02,0.388438
2.1520e-02,0.387625
2.1552e-02,0.376672
2.1584e-02,0.370906
2.1616e-02,0.361453
2.1648e-02,0.347859
2.1680e-02,0.339031
2.1712e-02,0.320125
2.1744e-02,0.299047
2.1776e-02,0.277797
2.1808e-02,0.255563
2.1840e-02,0.234109
2.1872e-02,0.215703
2.1904e-02,0.199453
2.1936e-02,0.17975
2.1968e-02,0.163734
2.2000e-02,0.152844
2.2032e-02,0.145203
2.2064e-02,0.135813
2.2096e-02,0.124172
2.2128e-02,0.117672
2.2160e-02,0.108641
2.2192e-02,0.101
2.2224e-02,0.0989219
2.2256e-02,0.0994688
2.2288e-02,0.0966875
2.2320e-02,0.0962031
2.2352e-02,0.0969219
2.2384e-02,0.0989531
2.2416e-02,0.094625
2.2448e-02,0.0955625
2.2480e-02,0.0948594
2.2512e-02,0.0949219
2.2544e-02,0.0915156
2.2576e-02,0.0921094
2.2608e-02,0.0892969
2.2640e-02,0.0864688
2.2672e-02,0.0858281
2.2704e-02,0.0868438
2.2736e-02,0.0868594
2.2768e-02,0.0824531
2.2800e-02,0.0800938
2.2832e-02,0.077625
2.2864e-02,0.0744063
2.2896e-02,0.0732188
2.2928e-02,0.0689375
2.2960e-02,0.0647656
2.2992e-02,0.0626719
2.3024e-02,0.0584844
2.3056e-02,0.0549844
2.3088e-02,0.0526875
2.3120e-02,0.0521875
2.3152e-02,0.0508438
2.3184e-02,0.0483438
2.3216e-02,0.0479375
2.3248e-02,0.0466406
2.3280e-02,0.0441875
2.3312e-02,0.0432344
2.3344e-02,0.0400625
2.3376e-02,0.039
2.3408e-02,0.0420469
2.3440e-02,0.0397656
2.3472e-02,0.03925
2.3504e-02,0.0391406
2.3536e-02,0.0377188
2.3568e-02,0.0375781
2.3600e-02,0.0375
2.3632e-02,0.03975
2.3664e-02,0.0398281
2.3696e-02,0.0395625
2.3728e-02,0.0390781
2.3760e-02,0.0370625
2.3792e-02,0.0377188
2.3824e-02,0.0361875
2.3856e-02,0.0355156
2.3888e-02,0.0351875
2.3920e-02,0.036375
2.3952e-02,0.038125
2.3984e-02,0.0374063
2.4016e-02,0.0373906
2.4048e-02,0.03575
2.4080e-02,0.0372969
2.4112e-02,0.0370313
2.4144e-02,0.0375469
2.4176e-02,0.0366094
2.4208e-02,0.0362188
2.4240e-02,0.0376875
2.4272e-02,0.0368125
2.4304e-02,0.039625
2.4336e-02,0.0371875
2.4368e-02,0.0361563
2.4400e-02,0.0367188
2.4432e-02,0.0359531
2.4464e-02,0.0358594
2.4496e-02,0.0343125
2.4528e-02,0.0338281
2.4560e-02,0.0348438
2.4592e-02,0.0352344
2.4624e-02,0.0339844
2.4656e-02,0.0330625
2.4688e-02,0.0324063
2.4720e-02,0.0338906
2.4752e-02,0.0330313
2.4784e-02,0.0324375
2.4816e-02,0.0317969
2.4848e-02,0.0315313
2.4880e-02,0.0320938
2.4912e-02,0.0314531
2.4944e-02,0.0307969
2.4976e-02,0.0309844
2.5008e-02,0.0307656
2.5040e-02,0.032125
2.5072e-02,0.031625
2.5104e-02,0.031375
2.5136e-02,0.0306406
2.5168e-02,0.0308125
2.5200e-02,0.030375
2.5232e-02,0.0315313
2.5264e-02,0.031
2.5296e-02,0.0316563
2.5328e-02,0.03175
2.5360e-02,0.0348281
2.5392e-02,0.034625
2.5424e-02,0.0332188
2.5456e-02,0.0314375
2.5488e-02,0.0312031
2.5520e-02,0.0315
2.5552e-02,0.0321094
2.5584e-02,0.0326094
2.5616e-02,0.0314219
2.5648e-02,0.0319375
2.5680e-02,0.0315625
2.5712e-02,0.031375
2.5744e-02,0.0320938
2.5776e-02,0.031625
2.5808e-02,0.0316094
2.5840e-02,0.0323906
2.5872e-02,0.0341719
2.5904e-02,0.0337188
2.5936e-02,0.0341094
2.5968e-02,0.0360469
2.6000e-02,0.0358594
2.6032e-02,0.0362344
2.6064e-02,0.0365781
2.6096e-02,0.0352969
2.6128e-02,0.0358281
2.6160e-02,0.0367813
2.6192e-02,0.0405156
2.6224e-02,0.0412188
2.6256e-02,0.0426094
2.6288e-02,0.0410625
2.6320e-02,0.0462344
2.6352e-02,0.0467031
2.6384e-02,0.0475313
2.6416e-02,0.0474844
2.6448e-02,0.0477813
2.6480e-02,0.0485
2.6512e-02,0.0485938
2.6544e-02,0.0501719
2.6576e-02,0.0512031
2.6608e-02,0.0510313
2.6640e-02,0.0521719
2.6672e-02,0.0517188
2.6704e-02,0.0515938
2.6736e-02,0.0520156
2.6768e-02,0.0510156
2.6800e-02,0.0506094
2.6832e-02,0.0490156
2.6864e-02,0.0493906
2.6896e-02,0.0473438
2.6928e-02,0.0453438
2.6960e-02,0.0430156
2.6992e-02,0.0430313
2.7024e-02,0.0418125
2.7056e-02,0.0427813
2.7088e-02,0.0408906
2.7120e-02,0.0424844
2.7152e-02,0.0406563
2.7184e-02,0.0386094
2.7216e-02,0.0372969
2.7248e-02,0.0354063
2.7280e-02,0.0357813
2.7312e-02,0.0376094
2.7344e-02,0.037
2.7376e-02,0.0366406
2.7408e-02,0.0356406
2.7440e-02,0.0359375
2.7472e-02,0.0353281
2.7504e-02,0.0357031
2.7536e-02,0.03575
2.7568e-02,0.0360313
2.7600e-02,0.0356094
2.7632e-02,0.036125
2.7664e-02,0.0355469
2.7696e-02,0.035875
2.7728e-02,0.0359688
2.7760e-02,0.0371406
2.7792e-02,0.0372188
2.7824e-02,0.0399375
2.7856e-02,0.0405156
2.7888e-02,0.0393594
2.7920e-02,0.0381563
2.7952e-02,0.0371719
2.7984e-02,0.03875
2.8016e-02,0.0395781
2.8048e-02,0.03925
2.8080e-02,0.0397031
2.8112e-02,0.0391563
2.8144e-02,0.039
2.8176e-02,0.0421094
2.8208e-02,0.0402969
2.8240e-02,0.0398594
2.8272e-02,0.039375
2.8304e-02,0.0391875
2.8336e-02,0.0405313
2.8368e-02,0.0405469
2.8400e-02,0.0416563
2.8432e-02,0.0448125
2.8464e-02,0.0465469
2.8496e-02,0.0477656
2.8528e-02,0.0489063
2.8560e-02,0.0502813
2.8592e-02,0.0490781
2.8624e-02,0.0479531
2.8656e-02,0.0510469
2.8688e-02,0.0496094
2.8720e-02,0.0529375
2.8752e-02,0.0514219
2.8784e-02,0.05125
2.8816e-02,0.0485938
2.8848e-02,0.0477344
2.8880e-02,0.0479063
2.8912e-02,0.0465625
2.8944e-02,0.0473125
2.8976e-02,0.046375
2.9008e-02,0.0437031
2.9040e-02,0.044375
2.9072e-02,0.0451406
2.9104e-02,0.0423281
2.9136e-02,0.0430313
2.9168e-02,0.0405313
2.9200e-02,0.0394063
2.9232e-02,0.0365781
2.9264e-02,0.0374844
2.9296e-02,0.0367031
2.9328e-02,0.0359063
2.9360e-02,0.0358438
2.9392e-02,0.0351406
2.9424e-02,0.0339063
2.9456e-02,0.0348125
2.9488e-02,0.0335156
2.9520e-02,0.0330781
2.9552e-02,0.0339531
2.9584e-02,0.0342344
2.9616e-02,0.0333438
2.9648e-02,0.0323438
2.9680e-02,0.0338438
2.9712e-02,0.0354375
2.9744e-02,0.0379219
2.9776e-02,0.0374063
2.9808e-02,0.0381875
2.9840e-02,0.0385313
2.9872e-02,0.0366094
2.9904e-02,0.0361875
2.9936e-02,0.0369063
2.9968e-02,0.0378125
3.0000e-02,0.0365156
3.0032e-02,0.0389688
3.0064e-02,0.0400625
3.0096e-02,0.0398281
3.0128e-02,0.0405781
3.0160e-02,0.0422969
3.0192e-02,0.0435938
3.0224e-02,0.0459531
3.0256e-02,0.0466406
3.0288e-02,0.0473438
3.0320e-02,0.047625
3.0352e-02,0.0497188
3.0384e-02,0.05025
3.0416e-02,0.053625
3.0448e-02,0.0562656
3.0480e-02,0.056625
3.0512e-02,0.0620469
3.0544e-02,0.064
3.0576e-02,0.0632344
3.0608e-02,0.0650156
3.0640e-02,0.06725
3.0672e-02,0.0708594
3.0704e-02,0.0739531
3.0736e-02,0.0768281
3.0768e-02,0.0779688
3.0800e-02,0.07825
3.0832e-02,0.0851406
3.0864e-02,0.0880156
3.0896e-02,0.0906875
3.0928e-02,0.0950625
3.0960e-02,0.0997344
3.0992e-02,0.107188
3.1024e-02,0.113859
3.1056e-02,0.121297
3.1088e-02,0.126594
3.1120e-02,0.134359
3.1152e-02,0.150031
3.1184e-02,0.161109
3.1216e-02,0.176547
3.1248e-02,0.190656
3.1280e-02,0.20875
3.1312e-02,0.220875
3.1344e-02,0.233781
3.1376e-02,0.249797
3.1408e-02,0.269859
3.1440e-02,0.29175
3.1472e-02,0.304891
3.1504e-02,0.319641
3.1536e-02,0.328625
3.1568e-02,0.337125
3.1600e-02,0.345016
3.1632e-02,0.349094
3.1664e-02,0.352188
3.1696e-02,0.358563
3.1728e-02,0.350328
3.1760e-02,0.343984
3.1792e-02,0.340734
3.1824e-02,0.328453
3.1856e-02,0.313922
3.1888e-02,0.299344
3.1920e-02,0.288125
3.1952e-02,0.264516
3.1984e-02,0.245656
3.2016e-02,0.230125
3.2048e-02,0.204766
3.2080e-02,0.182203
3.2112e-02,0.170203
3.2144e-02,0.153938
3.2176e-02,0.1375
3.2208e-02,0.122125
3.2240e-02,0.110516
3.2272e-02,0.0993125
3.2304e-02,0.0950469
3.2336e-02,0.0884219
3.2368e-02,0.0796875
3.2400e-02,0.0727656
3.2432e-02,0.0655313
3.2464e-02,0.0619844
3.2496e-02,0.0593594
3.2528e-02,0.055
3.2560e-02,0.0522813
3.2592e-02,0.0503438
3.2624e-02,0.0482188
3.2656e-02,0.0470156
3.2688e-02,0.0466094
3.2720e-02,0.0471094
3.2752e-02,0.0459688
3.2784e-02,0.0455781
3.2816e-02,0.0438125
3.2848e-02,0.0434063
3.2880e-02,0.0434844
3.2912e-02,0.0424531
3.2944e-02,0.0414844
3.2976e-02,0.0435
3.3008e-02,0.0434219
3.3040e-02,0.0403125
3.3072e-02,0.040875
3.3104e-02,0.0402656
3.3136e-02,0.0406406
3.3168e-02,0.0398594
3.3200e-02,0.0388438
3.3232e-02,0.0381719
3.3264e-02,0.0400469
3.3296e-02,0.0416094
3.3328e-02,0.0427813
3.3360e-02,0.0425781
3.3392e-02,0.0437031
3.3424e-02,0.0438906
3.3456e-02,0.0432188
3.3488e-02,0.0440625
3.3520e-02,0.0443906
3.3552e-02,0.0451719
3.3584e-02,0.0448906
3.3616e-02,0.04825
3.3648e-02,0.0475625
3.3680e-02,0.0475938
3.3712e-02,0.0499375
3.3744e-02,0.0528125
3.3776e-02,0.0530313
3.3808e-02,0.0564844
3.3840e-02,0.0577813
3.3872e-02,0.0590156
3.3904e-02,0.0592969
3.3936e-02,0.0627656
3.3968e-02,0.0657969
3.4000e-02,0.0684375
3.4032e-02,0.0696094
3.4064e-02,0.0729219
3.4096e-02,0.0776406
3.4128e-02,0.0801719
3.4160e-02,0.0826406
3.4192e-02,0.0843438
3.4224e-02,0.0836719
3.4256e-02,0.0831875
3.4288e-02,0.0823281
3.4320e-02,0.0791875
3.4352e-02,0.077
3.4384e-02,0.078875
3.4416e-02,0.0752969
3.4448e-02,0.0738594
3.4480e-02,0.0697813
3.4512e-02,0.0678906
3.4544e-02,0.0655156
3.4576e-02,0.062125
3.4608e-02,0.0595938
3.4640e-02,0.056125
3.4672e-02,0.0574219
3.4704e-02,0.0524688
3.4736e-02,0.0502969
3.4768e-02,0.0465625
3.4800e-02,0.0438906
3.4832e-02,0.0432813
3.4864e-02,0.0408281
3.4896e-02,0.0403594
3.4928e-02,0.0386406
3.4960e-02,0.0378906
3.4992e-02,0.0372031
3.5024e-02,0.0376094
3.5056e-02,0.0365156
3.5088e-02,0.035875
3.5120e-02,0.0344219
3.5152e-02,0.0344375
3.5184e-02,0.0350156
3.5216e-02,0.0354531
3.5248e-02,0.0343125
3.5280e-02,0.0343125
3.5312e-02,0.0325625
3.5344e-02,0.0333594
3.5376e-02,0.0343594
3.5408e-02,0.0344844
3.5440e-02,0.0342031
3.5472e-02,0.0342969
3.5504e-02,0.0354219
3.5536e-02,0.0358281
3.5568e-02,0.035875
3.5600e-02,0.0343438
3.5632e-02,0.0350469
3.5664e-02,0.0358906
3.5696e-02,0.0361094
3.5728e-02,0.037
3.5760e-02,0.035875
3.5792e-02,0.0365313
3.5824e-02,0.0356094
3.5856e-02,0.0365781
3.5888e-02,0.0361875
3.5920e-02,0.0359375
3.5952e-02,0.0354531
3.5984e-02,0.0341406
3.6016e-02,0.0336406
3.6048e-02,0.0341719
3.6080e-02,0.0331563
3.6112e-02,0.0325313
3.6144e-02,0.0339375
3.6176e-02,0.0316406
3.6208e-02,0.0304844
3.6240e-02,0.0310313
3.6272e-02,0.0291094
3.6304e-02,0.0293594
3.6336e-02,0.0289063
3.6368e-02,0.0287031
3.6400e-02,0.0291094
3.6432e-02,0.0300313
3.6464e-02,0.0302344
3.6496e-02,0.0288125
3.6528e-02,0.0280469
3.6560e-02,0.0278594
3.6592e-02,0.0282188
3.6624e-02,0.0307656
3.6656e-02,0.0315
3.6688e-02,0.0314375
3.6720e-02,0.0318906
3.6752e-02,0.0305
3.6784e-02,0.0295469
3.6816e-02,0.0308125
3.6848e-02,0.0307031
3.6880e-02,0.0293281
3.6912e-02,0.0292344
3.6944e-02,0.0293438
3.6976e-02,0.0288438
3.7008e-02,0.0292188
3.7040e-02,0.0299844
3.7072e-02,0.0298438
3.7104e-02,0.0310938
3.7136e-02,0.0342344
3.7168e-02,0.032625
3.7200e-02,0.0330313
3.7232e-02,0.0319844
3.7264e-02,0.0319375
3.7296e-02,0.0319844
3.7328e-02,0.0317969
3.7360e-02,0.0318906
3.7392e-02,0.0324375
3.7424e-02,0.0325469
3.7456e-02,0.0317188
3.7488e-02,0.0305
3.7520e-02,0.0297813
3.7552e-02,0.0282031
3.7584e-02,0.0291094
3.7616e-02,0.0284688
3.7648e-02,0.0286094
3.7680e-02,0.02875
3.7712e-02,0.0294531
3.7744e-02,0.0289531
3.7776e-02,0.0286563
3.7808e-02,0.02925
3.7840e-02,0.0300625
3.7872e-02,0.0294219
3.7904e-02,0.029
3.7936e-02,0.0295313
3.7968e-02,0.0293125
3.8000e-02,0.0283125
3.8032e-02,0.0280781
3.8064e-02,0.029875
3.8096e-02,0.0307188
3.8128e-02,0.0304219
3.8160e-02,0.0300313
3.8192e-02,0.02925
3.8224e-02,0.0308906
3.8256e-02,0.0298438
3.8288e-02,0.0306719
3.8320e-02,0.0305469
3.8352e-02,0.0299844
3.8384e-02,0.0299375
3.8416e-02,0.0303906
3.8448e-02,0.0301094
3.8480e-02,0.0294063
3.8512e-02,0.0288125
3.8544e-02,0.0288906
3.8576e-02,0.0274844
3.8608e-02,0.0275781
3.8640e-02,0.0279844
3.8672e-02,0.0291875
3.8704e-02,0.0296406
3.8736e-02,0.0296094
3.8768e-02,0.0300156
3.8800e-02,0.0313594
3.8832e-02,0.0296094
3.8864e-02,0.028375
3.8896e-02,0.0284375
3.8928e-02,0.0290781
3.8960e-02,0.0303125
3.8992e-02,0.031875
3.9024e-02,0.030125
3.9056e-02,0.0301875
3.9088e-02,0.0284063
3.9120e-02,0.0300938
3.9152e-02,0.0300938
3.9184e-02,0.0313906
3.9216e-02,0.0318125
3.9248e-02,0.0302344
3.9280e-02,0.0299375
3.9312e-02,0.0294531
3.9344e-02,0.0291094
3.9376e-02,0.0280469
3.9408e-02,0.0279844
3.9440e-02,0.0285
3.9472e-02,0.0280156
3.9504e-02,0.0300469
3.9536e-02,0.0309688
3.9568e-02,0.0315
3.9600e-02,0.030875
3.9632e-02,0.0304063
3.9664e-02,0.0297969
3.9696e-02,0.0310313
3.9728e-02,0.0308594
3.9760e-02,0.0321875
3.9792e-02,0.0320313
3.9824e-02,0.0321563
3.9856e-02,0.0320625
3.9888e-02,0.0322813
3.9920e-02,0.0330313
3.9952e-02,0.0329688
3.9984e-02,0.0323906
4.0016e-02,0.0316406
4.0048e-02,0.0305313
4.0080e-02,0.0322969
4.0112e-02,0.0326094
4.0144e-02,0.0331563
4.0176e-02,0.03425
4.0208e-02,0.0360625
4.0240e-02,0.0356563
4.0272e-02,0.0362344
4.0304e-02,0.0372188
4.0336e-02,0.0373438
4.0368e-02,0.0332344
4.0400e-02,0.0345625
4.0432e-02,0.034125
4.0464e-02,0.0349219
4.0496e-02,0.0357031
4.0528e-02,0.037
4.0560e-02,0.0362969
4.0592e-02,0.0366094
4.0624e-02,0.0386406
4.0656e-02,0.0397344
4.0688e-02,0.04
4.0720e-02,0.0425781
4.0752e-02,0.0434688
4.0784e-02,0.0431563
4.0816e-02,0.044625
4.0848e-02,0.0442344
4.0880e-02,0.044
4.0912e-02,0.0468125
4.0944e-02,0.047625
4.0976e-02,0.0485938
4.1008e-02,0.0517656
4.1040e-02,0.0510625
4.1072e-02,0.0555156
4.1104e-02,0.0549844
4.1136e-02,0.0604844
4.1168e-02,0.0602813
4.1200e-02,0.0642344
4.1232e-02,0.0669063
4.1264e-02,0.0724531
4.1296e-02,0.0733125
4.1328e-02,0.0772656
4.1360e-02,0.0835469
4.1392e-02,0.0855156
4.1424e-02,0.0860313
4.1456e-02,0.0905156
4.1488e-02,0.0929531
4.1520e-02,0.0987969
4.1552e-02,0.103781
4.1584e-02,0.108641
4.1616e-02,0.110234
4.1648e-02,0.114578
4.1680e-02,0.118031
4.1712e-02,0.1205
4.1744e-02,0.127
4.1776e-02,0.130844
4.1808e-02,0.135234
4.1840e-02,0.140516
4.1872e-02,0.145563
4.1904e-02,0.145766
4.1936e-02,0.145375
4.1968e-02,0.150406
4.2000e-02,0.153797
4.2032e-02,0.1575
4.2064e-02,0.162766
4.2096e-02,0.164453
4.2128e-02,0.168281
4.2160e-02,0.174484
4.2192e-02,0.188766
4.2224e-02,0.193875
4.2256e-02,0.204875
4.2288e-02,0.219547
4.2320e-02,0.234906
4.2352e-02,0.248922
4.2384e-02,0.270984
4.2416e-02,0.282359
4.2448e-02,0.295906
4.2480e-02,0.308531
4.2512e-02,0.329016
4.2544e-02,0.344172
4.2576e-02,0.360563
4.2608e-02,0.369609
4.2640e-02,0.374984
4.2672e-02,0.379469
4.2704e-02,0.383969
4.2736e-02,0.384219
4.2768e-02,0.3795
4.2800e-02,0.371375
4.2832e-02,0.356984
4.2864e-02,0.337953
4.2896e-02,0.322359
4.2928e-02,0.302422
4.2960e-02,0.285516
4.2992e-02,0.266703
4.3024e-02,0.251891
4.3056e-02,0.229484
4.3088e-02,0.208391
4.3120e-02,0.187859
4.3152e-02,0.169391
4.3184e-02,0.161094
4.3216e-02,0.149297
4.3248e-02,0.134984
4.3280e-02,0.127094
4.3312e-02,0.119703
4.3344e-02,0.110375
4.3376e-02,0.104
4.3408e-02,0.103297
4.3440e-02,0.101891
4.3472e-02,0.0971406
4.3504e-02,0.0934063
4.3536e-02,0.0982031
4.3568e-02,0.0970938
4.3600e-02,0.0959219
4.3632e-02,0.0931094
4.3664e-02,0.0915938
4.3696e-02,0.0890469
4.3728e-02,0.0865938
4.3760e-02,0.0855313
4.3792e-02,0.0869063
4.3824e-02,0.0862188
4.3856e-02,0.0840938
4.3888e-02,0.0827969
4.3920e-02,0.0786406
4.3952e-02,0.07375
4.3984e-02,0.0710469
4.4016e-02,0.0659219
4.4048e-02,0.0621406
4.4080e-02,0.0594063
4.4112e-02,0.0555781
4.4144e-02,0.0531406
4.4176e-02,0.0505156
4.4208e-02,0.0490781
4.4240e-02,0.0461563
4.4272e-02,0.0437344
4.4304e-02,0.0438281
4.4336e-02,0.042
4.4368e-02,0.0407344
4.4400e-02,0.0422656
4.4432e-02,0.0445
4.4464e-02,0.04425
4.4496e-02,0.0417344
4.4528e-02,0.0412656
4.4560e-02,0.0397344
4.4592e-02,0.0384844
4.4624e-02,0.0364219
4.4656e-02,0.0361406
4.4688e-02,0.0361719
4.4720e-02,0.0359063
4.4752e-02,0.0364375
4.4784e-02,0.0363594
4.4816e-02,0.0384063
4.4848e-02,0.0396719
4.4880e-02,0.0395313
4.4912e-02,0.0385469
4.4944e-02,0.0374844
4.4976e-02,0.0358438
4.5008e-02,0.0375625
4.5040e-02,0.0365313
4.5072e-02,0.0356719
4.5104e-02,0.0377188
4.5136e-02,0.0360313
4.5168e-02,0.0354531
4.5200e-02,0.0356719
4.5232e-02,0.0354375
4.5264e-02,0.0359063
4.5296e-02,0.0355781
4.5328e-02,0.0342031
4.5360e-02,0.0322656
4.5392e-02,0.0315469
4.5424e-02,0.0320156
4.5456e-02,0.0322031
4.5488e-02,0.0317813
4.5520e-02,0.0320938
4.5552e-02,0.0323125
4.5584e-02,0.0333125
4.5616e-02,0.0318438
4.5648e-02,0.0320156
4.5680e-02,0.03425
4.5712e-02,0.0324375
4.5744e-02,0.0341719
4.5776e-02,0.033875
4.5808e-02,0.033125
4.5840e-02,0.0314063
4.5872e-02,0.0316875
4.5904e-02,0.0319375
4.5936e-02,0.0318281
4.5968e-02,0.0310781
4.6000e-02,0.03025
4.6032e-02,0.0314688
4.6064e-02,0.0324063
4.6096e-02,0.0303281
4.6128e-02,0.0317813
4.6160e-02,0.0312813
4.6192e-02,0.030125
4.6224e-02,0.0307188
4.6256e-02,0.0324063
4.6288e-02,0.0326094
4.6320e-02,0.0335625
4.6352e-02,0.0330313
4.6384e-02,0.0312188
4.6416e-02,0.031625
4.6448e-02,0.03025
4.6480e-02,0.0327031
4.6512e-02,0.0337813
4.6544e-02,0.0329063
4.6576e-02,0.0343594
4.6608e-02,0.03325
4.6640e-02,0.0322031
4.6672e-02,0.0327813
4.6704e-02,0.0327813
4.6736e-02,0.03375
4.6768e-02,0.0344688
4.6800e-02,0.037125
4.6832e-02,0.0384219
4.6864e-02,0.0382656
4.6896e-02,0.0372969
4.6928e-02,0.03975
4.6960e-02,0.0399375
4.6992e-02,0.0403281
4.7024e-02,0.0426875
4.7056e-02,0.042125
4.7088e-02,0.0424688
4.7120e-02,0.0452813
4.7152e-02,0.0465938
4.7184e-02,0.0474531
4.7216e-02,0.04775
4.7248e-02,0.0485
4.7280e-02,0.0491094
4.7312e-02,0.0522188
4.7344e-02,0.0517969
4.7376e-02,0.0505156
4.7408e-02,0.0488281
4.7440e-02,0.0491563
4.7472e-02,0.048
4.7504e-02,0.0495313
4.7536e-02,0.0477656
4.7568e-02,0.0474219
4.7600e-02,0.0475469
4.7632e-02,0.0466563
4.7664e-02,0.0454219
4.7696e-02,0.0442031
4.7728e-02,0.0411406
4.7760e-02,0.0395781
4.7792e-02,0.0383125
4.7824e-02,0.03625
4.7856e-02,0.036625
4.7888e-02,0.034125
4.7920e-02,0.0354688
4.7952e-02,0.035125
4.7984e-02,0.0349844
4.8016e-02,0.035875
4.8048e-02,0.0341406
4.8080e-02,0.0363594
4.8112e-02,0.0362188
4.8144e-02,0.0370313
4.8176e-02,0.0378125
4.8208e-02,0.03825
4.8240e-02,0.0366875
4.8272e-02,0.0359531
4.8304e-02,0.0362344
4.8336e-02,0.0364688
4.8368e-02,0.0351094
4.8400e-02,0.0384375
4.8432e-02,0.040125
4.8464e-02,0.0398281
4.8496e-02,0.0399844
4.8528e-02,0.0419531
4.8560e-02,0.0399219
4.8592e-02,0.039125
4.8624e-02,0.039
4.8656e-02,0.0400781
4.8688e-02,0.0399844
4.8720e-02,0.0405469
4.8752e-02,0.0398281
4.8784e-02,0.0404531
4.8816e-02,0.0401094
4.8848e-02,0.0412344
4.8880e-02,0.0422969
4.8912e-02,0.0429531
4.8944e-02,0.0444531
4.8976e-02,0.0468594
4.9008e-02,0.048125
4.9040e-02,0.0474219
4.9072e-02,0.0475469
4.9104e-02,0.0492813
4.9136e-02,0.0522656
4.9168e-02,0.0522813
4.9200e-02,0.051625
4.9232e-02,0.0530313
4.9264e-02,0.0519063
4.9296e-02,0.0511719
4.9328e-02,0.051125
4.9360e-02,0.0519063
4.9392e-02,0.0481563
4.9424e-02,0.0465938
4.9456e-02,0.0467031
4.9488e-02,0.0468594
4.9520e-02,0.0448125
4.9552e-02,0.0446406
4.9584e-02,0.0434375
4.9616e-02,0.0407656
4.9648e-02,0.0415625
4.9680e-02,0.039875
4.9712e-02,0.0399844
4.9744e-02,0.0371094
4.9776e-02,0.0359688
4.9808e-02,0.0360781
4.9840e-02,0.0364375
4.9872e-02,0.0369688
4.9904e-02,0.0352813
4.9936e-02,0.0351406
4.9968e-02,0.03575
5.0000e-02,0.0363906
5.0032e-02,0.036875
5.0064e-02,0.03775
5.0096e-02,0.0371094
5.0128e-02,0.0373125
5.0160e-02,0.0366875
5.0192e-02,0.0375
5.0224e-02,0.0392031
5.0256e-02,0.0396094
5.0288e-02,0.0386563
5.0320e-02,0.0402031
5.0352e-02,0.0386094
5.0384e-02,0.0382031
5.0416e-02,0.0399531
5.0448e-02,0.0400313
5.0480e-02,0.0409688
5.0512e-02,0.0409375
5.0544e-02,0.0418906
5.0576e-02,0.0436094
5.0608e-02,0.0458906
5.0640e-02,0.0473125
5.0672e-02,0.0481406
5.0704e-02,0.0509531
5.0736e-02,0.05125
5.0768e-02,0.053
5.0800e-02,0.05825
5.0832e-02,0.0607188
5.0864e-02,0.0633125
5.0896e-02,0.0631406
5.0928e-02,0.0657813
5.0960e-02,0.0650469
5.0992e-02,0.0692656
5.1024e-02,0.0695625
5.1056e-02,0.0752969
5.1088e-02,0.08175
5.1120e-02,0.0800781
5.1152e-02,0.0859375
5.1184e-02,0.0898906
5.1216e-02,0.0951094
5.1248e-02,0.0988906
5.1280e-02,0.107859
5.1312e-02,0.115922
5.1344e-02,0.124484
5.1376e-02,0.140797
5.1408e-02,0.152641
5.1440e-02,0.171641
5.1472e-02,0.185641
5.1504e-02,0.197563
5.1536e-02,0.206859
5.1568e-02,0.223578
5.1600e-02,0.243422
5.1632e-02,0.256328
5.1664e-02,0.272672
5.1696e-02,0.294734
5.1728e-02,0.314844
5.1760e-02,0.329656
5.1792e-02,0.329781
5.1824e-02,0.336688
5.1856e-02,0.341344
5.1888e-02,0.339531
5.1920e-02,0.332781
5.1952e-02,0.3295
5.1984e-02,0.321156
5.2016e-02,0.314734
5.2048e-02,0.304781
5.2080e-02,0.291828
5.2112e-02,0.274734
5.2144e-02,0.256156
5.2176e-02,0.237531
5.2208e-02,0.218688
5.2240e-02,0.204125
5.2272e-02,0.189344
5.2304e-02,0.169531
5.2336e-02,0.150875
5.2368e-02,0.138047
5.2400e-02,0.123078
5.2432e-02,0.112547
5.2464e-02,0.104063
5.2496e-02,0.0924375
5.2528e-02,0.0812188
5.2560e-02,0.0733594
5.2592e-02,0.0665625
5.2624e-02,0.0593906
5.2656e-02,0.0560938
5.2688e-02,0.0543281
5.2720e-02,0.0520469
5.2752e-02,0.0499375
5.2784e-02,0.0476406
5.2816e-02,0.0449219
5.2848e-02,0.0454063
5.2880e-02,0.0406563
5.2912e-02,0.0384844
5.2944e-02,0.04
5.2976e-02,0.0410313
5.3008e-02,0.0412813
5.3040e-02,0.0405156
5.3072e-02,0.0404844
5.3104e-02,0.0388281
5.3136e-02,0.0389219
5.3168e-02,0.0398594
5.3200e-02,0.0389844
5.3232e-02,0.0393906
5.3264e-02,0.0396719
5.3296e-02,0.0403594
5.3328e-02,0.0404375
5.3360e-02,0.0411719
5.3392e-02,0.0414219
5.3424e-02,0.0444844
5.3456e-02,0.0439531
5.3488e-02,0.04125
5.3520e-02,0.0443438
5.3552e-02,0.043375
5.3584e-02,0.0416094
5.3616e-02,0.0438594
5.3648e-02,0.0442969
5.3680e-02,0.0459531
5.3712e-02,0.0487656
5.3744e-02,0.0536719
5.3776e-02,0.0578906
5.3808e-02,0.0608125
5.3840e-02,0.0616875
5.3872e-02,0.0636094
5.3904e-02,0.0645938
5.3936e-02,0.0662656
5.3968e-02,0.0681719
5.4000e-02,0.0667188
5.4032e-02,0.0752344
5.4064e-02,0.0781875
5.4096e-02,0.0805781
5.4128e-02,0.0814063
5.4160e-02,0.0832656
5.4192e-02,0.082625
5.4224e-02,0.0817813
5.4256e-02,0.0790156
5.4288e-02,0.0794531
5.4320e-02,0.0789531
5.4352e-02,0.0754219
5.4384e-02,0.0705938
5.4416e-02,0.0686875
5.4448e-02,0.0656875
5.4480e-02,0.0643125
5.4512e-02,0.0639063
5.4544e-02,0.059
5.4576e-02,0.05525
5.4608e-02,0.0540469
5.4640e-02,0.0516719
5.4672e-02,0.05025
5.4704e-02,0.0480156
5.4736e-02,0.0474219
5.4768e-02,0.04375
5.4800e-02,0.0436875
5.4832e-02,0.0405781
5.4864e-02,0.0406875
5.4896e-02,0.0390781
5.4928e-02,0.0373594
5.4960e-02,0.0350781
5.4992e-02,0.0349375
5.5024e-02,0.0354688
5.5056e-02,0.0343281
5.5088e-02,0.0345469
5.5120e-02,0.0346406
5.5152e-02,0.0322188
5.5184e-02,0.0327344
5.5216e-02,0.0327188
5.5248e-02,0.03375
5.5280e-02,0.0358125
5.5312e-02,0.0356563
5.5344e-02,0.03575
5.5376e-02,0.0362656
5.5408e-02,0.0356719
5.5440e-02,0.0365
5.5472e-02,0.0369375
5.5504e-02,0.0364063
5.5536e-02,0.0364531
5.5568e-02,0.0375313
5.5600e-02,0.0363281
5.5632e-02,0.0338125
5.5664e-02,0.0350625
5.5696e-02,0.0374219
5.5728e-02,0.0337344
5.5760e-02,0.0343125
5.5792e-02,0.0357344
5.5824e-02,0.0360156
5.5856e-02,0.0339219
5.5888e-02,0.03375
5.5920e-02,0.0326094
5.5952e-02,0.0320313
5.5984e-02,0.0330781
5.6016e-02,0.0333906
5.6048e-02,0.0335781
5.6080e-02,0.0312656
5.6112e-02,0.0309688
5.6144e-02,0.0313125
5.6176e-02,0.0295938
5.6208e-02,0.0303281
5.6240e-02,0.0284844
5.6272e-02,0.0302344
5.6304e-02,0.0307813
5.6336e-02,0.0300313
5.6368e-02,0.0300313
5.6400e-02,0.0304531
5.6432e-02,0.0295938
5.6464e-02,0.0281094
5.6496e-02,0.0294375
5.6528e-02,0.0305313
5.6560e-02,0.0292969
5.6592e-02,0.0307344
5.6624e-02,0.0303594
5.6656e-02,0.0299844
5.6688e-02,0.029125
5.6720e-02,0.0289688
5.6752e-02,0.0302813
5.6784e-02,0.0302969
5.6816e-02,0.0302656
5.6848e-02,0.0302031
5.6880e-02,0.0296563
5.6912e-02,0.0299531
5.6944e-02,0.0283281
5.6976e-02,0.0280156
5.7008e-02,0.0274844
5.7040e-02,0.0275
5.7072e-02,0.0281719
5.7104e-02,0.0288438
5.7136e-02,0.0297969
5.7168e-02,0.0315156
5.7200e-02,0.03225
5.7232e-02,0.0317188
5.7264e-02,0.0301875
5.7296e-02,0.03075
5.7328e-02,0.0302813
5.7360e-02,0.0298438
5.7392e-02,0.0302188
5.7424e-02,0.0291094
5.7456e-02,0.0291563
5.7488e-02,0.0296094
5.7520e-02,0.0306719
5.7552e-02,0.0307813
5.7584e-02,0.0307188
5.7616e-02,0.03025
5.7648e-02,0.0289531
5.7680e-02,0.0301563
5.7712e-02,0.0316875
5.7744e-02,0.0292656
5.7776e-02,0.0300469
5.7808e-02,0.0322188
5.7840e-02,0.0305469
5.7872e-02,0.0289375
5.7904e-02,0.029
5.7936e-02,0.0286094
5.7968e-02,0.0296875
5.8000e-02,0.0300313
5.8032e-02,0.0303906
5.8064e-02,0.0319219
5.8096e-02,0.0316719
5.8128e-02,0.0315156
5.8160e-02,0.0299688
5.8192e-02,0.0302656
5.8224e-02,0.0309219
5.8256e-02,0.03025
5.8288e-02,0.0302188
5.8320e-02,0.029
5.8352e-02,0.0279844
5.8384e-02,0.0280938
5.8416e-02,0.0274375
5.8448e-02,0.0278125
5.8480e-02,0.0300781
5.8512e-02,0.0324531
5.8544e-02,0.0310469
5.8576e-02,0.0292813
5.8608e-02,0.0290156
5.8640e-02,0.0306719
5.8672e-02,0.029375
5.8704e-02,0.0312656
5.8736e-02,0.0299844
5.8768e-02,0.0290625
5.8800e-02,0.0282813
5.8832e-02,0.02975
5.8864e-02,0.0316563
5.8896e-02,0.0305938
5.8928e-02,0.0314063
5.8960e-02,0.0307344
5.8992e-02,0.0307344
5.9024e-02,0.0305781
5.9056e-02,0.0302031
5.9088e-02,0.0302656
5.9120e-02,0.0292656
5.9152e-02,0.0278125
5.9184e-02,0.0293281
5.9216e-02,0.0304688
5.9248e-02,0.0309531
5.9280e-02,0.0306875
5.9312e-02,0.0320313
5.9344e-02,0.0341094
5.9376e-02,0.0339531
5.9408e-02,0.0325625
5.9440e-02,0.0344531
5.9472e-02,0.033125
5.9504e-02,0.0339375
5.9536e-02,0.0321563
5.9568e-02,0.0325625
5.9600e-02,0.0311406
5.9632e-02,0.0333281
5.9664e-02,0.0355
5.9696e-02,0.0362188
5.9728e-02,0.0347813
5.9760e-02,0.0354688
5.9792e-02,0.0370469
5.9824e-02,0.0385469
5.9856e-02,0.0365313
5.9888e-02,0.0357344
5.9920e-02,0.0377031
5.9952e-02,0.0369063
5.9984e-02,0.0396406
6.0016e-02,0.0407344
6.0048e-02,0.0440938
6.0080e-02,0.0428438
6.0112e-02,0.0432344
6.0144e-02,0.0439844
6.0176e-02,0.044
6.0208e-02,0.045
6.0240e-02,0.0467344
6.0272e-02,0.0482813
6.0304e-02,0.0511719
6.0336e-02,0.0534688
6.0368e-02,0.0552031
6.0400e-02,0.0576094
6.0432e-02,0.0579063
6.0464e-02,0.0605938
6.0496e-02,0.0636563
6.0528e-02,0.067375
6.0560e-02,0.0714688
6.0592e-02,0.0711563
6.0624e-02,0.0767031
6.0656e-02,0.0808438
6.0688e-02,0.0892813
6.0720e-02,0.0968438
6.0752e-02,0.0965469
6.0784e-02,0.102531
6.0816e-02,0.109734
6.0848e-02,0.111422
6.0880e-02,0.116688
6.0912e-02,0.120906
6.0944e-02,0.1275
6.0976e-02,0.129453
6.1008e-02,0.130828
6.1040e-02,0.132484
6.1072e-02,0.135
6.1104e-02,0.139672
6.1136e-02,0.141672
6.1168e-02,0.147828
6.1200e-02,0.151906
6.1232e-02,0.157547
6.1264e-02,0.161344
6.1296e-02,0.16925
6.1328e-02,0.175563
6.1360e-02,0.185859
6.1392e-02,0.196016
6.1424e-02,0.214516
6.1456e-02,0.224969
6.1488e-02,0.234375
6.1520e-02,0.249234
6.1552e-02,0.266609
6.1584e-02,0.279297
6.1616e-02,0.292969
6.1648e-02,0.308359
6.1680e-02,0.318531
6.1712e-02,0.334859
6.1744e-02,0.345391
6.1776e-02,0.352
6.1808e-02,0.353094
6.1840e-02,0.360359
6.1872e-02,0.364094
6.1904e-02,0.359422
6.1936e-02,0.349078
6.1968e-02,0.343781
6.2000e-02,0.331969
6.2032e-02,0.314516
6.2064e-02,0.297156
6.2096e-02,0.282688
6.2128e-02,0.264844
6.2160e-02,0.248766
6.2192e-02,0.234359
6.2224e-02,0.211906
6.2256e-02,0.190859
6.2288e-02,0.170719
6.2320e-02,0.162734
6.2352e-02,0.150531
6.2384e-02,0.138063
6.2416e-02,0.122859
6.2448e-02,0.113578
6.2480e-02,0.112188
6.2512e-02,0.104422
6.2544e-02,0.100438
6.2576e-02,0.099375
6.2608e-02,0.0979844
6.2640e-02,0.0983281
6.2672e-02,0.095375
6.2704e-02,0.0911094
6.2736e-02,0.0874219
6.2768e-02,0.0852344
6.2800e-02,0.0840625
6.2832e-02,0.0864375
6.2864e-02,0.0798281
6.2896e-02,0.0754688
6.2928e-02,0.0755
6.2960e-02,0.0741719
6.2992e-02,0.0715781
6.3024e-02,0.0677656
6.3056e-02,0.0639375
6.3088e-02,0.063125
6.3120e-02,0.0615781
6.3152e-02,0.05775
6.3184e-02,0.0543125
6.3216e-02,0.05125
6.3248e-02,0.0508125
6.3280e-02,0.0493906
6.3312e-02,0.0491406
6.3344e-02,0.0464375
6.3376e-02,0.0460469
6.3408e-02,0.0433281
6.3440e-02,0.0418594
6.3472e-02,0.0389531
6.3504e-02,0.0389844
6.3536e-02,0.0399063
6.3568e-02,0.0385938
6.3600e-02,0.0396563
6.3632e-02,0.0394688
6.3664e-02,0.0406563
6.3696e-02,0.0391719
6.3728e-02,0.03925
6.3760e-02,0.0391875
6.3792e-02,0.0377656
6.3824e-02,0.0379219
6.3856e-02,0.0367344
6.3888e-02,0.0371875
6.3920e-02,0.0380469
6.3952e-02,0.0396094
6.3984e-02,0.0392188
6.4016e-02,0.0395781
6.4048e-02,0.0387188
6.4080e-02,0.0383906
6.4112e-02,0.0364063
6.4144e-02,0.0360469
6.4176e-02,0.0366094
6.4208e-02,0.0358906
6.4240e-02,0.0360469
6.4272e-02,0.0354375
6.4304e-02,0.0357656
6.4336e-02,0.0349844
6.4368e-02,0.0339219
6.4400e-02,0.0346406
6.4432e-02,0.0342188
6.4464e-02,0.0328281
6.4496e-02,0.0332813
6.4528e-02,0.0325625
6.4560e-02,0.0338906
6.4592e-02,0.0321719
6.4624e-02,0.0318906
6.4656e-02,0.0304219
6.4688e-02,0.0304375
6.4720e-02,0.0305938
6.4752e-02,0.0312656
6.4784e-02,0.0290469
6.4816e-02,0.0286094
6.4848e-02,0.0285781
6.4880e-02,0.0292656
6.4912e-02,0.0311875
6.4944e-02,0.0314063
6.4976e-02,0.0308438
6.5008e-02,0.0317188
6.5040e-02,0.0311563
6.5072e-02,0.0315156
6.5104e-02,0.0325781
6.5136e-02,0.0312031
6.5168e-02,0.0315781
6.5200e-02,0.0319375
6.5232e-02,0.0321406
6.5264e-02,0.0315781
6.5296e-02,0.0313438
6.5328e-02,0.0307344
6.5360e-02,0.0318125
6.5392e-02,0.0301563
6.5424e-02,0.0305625
6.5456e-02,0.0315938
6.5488e-02,0.031875
6.5520e-02,0.0316719
6.5552e-02,0.0319375
6.5584e-02,0.0326875
6.5616e-02,0.0345156
6.5648e-02,0.0350938
6.5680e-02,0.03525
6.5712e-02,0.0370313
6.5744e-02,0.0386719
6.5776e-02,0.040625
6.5808e-02,0.0404531
6.5840e-02,0.0405156
6.5872e-02,0.0419063
6.5904e-02,0.0420469
6.5936e-02,0.0413438
6.5968e-02,0.0434688
6.6000e-02,0.0444844
6.6032e-02,0.0465469
6.6064e-02,0.0500156
6.6096e-02,0.0495
6.6128e-02,0.0502969
6.6160e-02,0.0514219
6.6192e-02,0.0511719
6.6224e-02,0.0501094
6.6256e-02,0.0489219
6.6288e-02,0.0498594
6.6320e-02,0.0518438
6.6352e-02,0.0516563
6.6384e-02,0.0489688
6.6416e-02,0.0471406
6.6448e-02,0.0454844
6.6480e-02,0.0458125
6.6512e-02,0.0430469
6.6544e-02,0.0414219
6.6576e-02,0.0438594
6.6608e-02,0.0427188
6.6640e-02,0.0398125
6.6672e-02,0.0389688
6.6704e-02,0.0389375
6.6736e-02,0.0384844
6.6768e-02,0.037625
6.6800e-02,0.0367344
6.6832e-02,0.0361875
6.6864e-02,0.0360938
6.6896e-02,0.034625
6.6928e-02,0.0354531
6.6960e-02,0.0340938
6.6992e-02,0.0320313
6.7024e-02,0.0318906
6.7056e-02,0.0330625
6.7088e-02,0.0337188
6.7120e-02,0.034875
6.7152e-02,0.03675
6.7184e-02,0.0380625
6.7216e-02,0.0376875
6.7248e-02,0.0379219
6.7280e-02,0.0386406
6.7312e-02,0.03975
6.7344e-02,0.0404375
6.7376e-02,0.0429219
6.7408e-02,0.0410469
6.7440e-02,0.0411563
6.7472e-02,0.0420156
6.7504e-02,0.0417344
6.7536e-02,0.0425781
6.7568e-02,0.0432188
6.7600e-02,0.0450625
6.7632e-02,0.0475625
6.7664e-02,0.0465781
6.7696e-02,0.0480938
6.7728e-02,0.0467969
6.7760e-02,0.0469688
6.7792e-02,0.0489063
6.7824e-02,0.0493281
6.7856e-02,0.0502188
6.7888e-02,0.0522188
6.7920e-02,0.0541719
6.7952e-02,0.0542344
6.7984e-02,0.0522031
6.8016e-02,0.0500625
6.8048e-02,0.0498906
6.8080e-02,0.0485469
6.8112e-02,0.0474219
6.8144e-02,0.0453594
6.8176e-02,0.0460469
6.8208e-02,0.0444219
6.8240e-02,0.0424844
6.8272e-02,0.0462969
6.8304e-02,0.0450313
6.8336e-02,0.040375
6.8368e-02,0.0406094
6.8400e-02,0.0395469
6.8432e-02,0.0396719
6.8464e-02,0.0368906
6.8496e-02,0.0357344
6.8528e-02,0.0371563
6.8560e-02,0.0360469
6.8592e-02,0.03625
6.8624e-02,0.0359688
6.8656e-02,0.0363594
6.8688e-02,0.0362188
6.8720e-02,0.035625
6.8752e-02,0.0364375
6.8784e-02,0.0365313
6.8816e-02,0.0373594
6.8848e-02,0.038875
6.8880e-02,0.0385
6.8912e-02,0.0365156
6.8944e-02,0.0398594
6.8976e-02,0.0405
6.9008e-02,0.0386875
6.9040e-02,0.0396094
6.9072e-02,0.0392344
6.9104e-02,0.0391875
6.9136e-02,0.0415625
6.9168e-02,0.0440469
6.9200e-02,0.044
6.9232e-02,0.0466719
6.9264e-02,0.0484219
6.9296e-02,0.05
6.9328e-02,0.0537656
6.9360e-02,0.0565313
6.9392e-02,0.0581875
6.9424e-02,0.0590156
6.9456e-02,0.0575781
6.9488e-02,0.0599063
6.9520e-02,0.0641563
6.9552e-02,0.068375
6.9584e-02,0.06975
6.9616e-02,0.0736406
6.9648e-02,0.0792344
6.9680e-02,0.0855625
6.9712e-02,0.090125
6.9744e-02,0.0935781
6.9776e-02,0.098
6.9808e-02,0.102531
6.9840e-02,0.112859
6.9872e-02,0.120781
6.9904e-02,0.134719
6.9936e-02,0.144813
6.9968e-02,0.156922
7.0000e-02,0.171969
7.0032e-02,0.187984
7.0064e-02,0.208844
7.0096e-02,0.222234
7.0128e-02,0.238375
7.0160e-02,0.254359
7.0192e-02,0.265766
7.0224e-02,0.278938
7.0256e-02,0.288672
7.0288e-02,0.300516
7.0320e-02,0.305844
7.0352e-02,0.310094
7.0384e-02,0.318297
7.0416e-02,0.32675
7.0448e-02,0.326969
7.0480e-02,0.320063
7.0512e-02,0.307266
7.0544e-02,0.292391
7.0576e-02,0.277219
7.0608e-02,0.272094
7.0640e-02,0.256438
7.0672e-02,0.238125
7.0704e-02,0.224172
7.0736e-02,0.202766
7.0768e-02,0.185781
7.0800e-02,0.170078
7.0832e-02,0.154813
7.0864e-02,0.140063
7.0896e-02,0.123969
7.0928e-02,0.114547
7.0960e-02,0.104031
7.0992e-02,0.091125
7.1024e-02,0.0828906
7.1056e-02,0.0768906
7.1088e-02,0.070625
7.1120e-02,0.062625
7.1152e-02,0.0594219
7.1184e-02,0.0564063
7.1216e-02,0.0512031
7.1248e-02,0.0490625
7.1280e-02,0.0510938
7.1312e-02,0.0494375
7.1344e-02,0.0481406
7.1376e-02,0.045625
7.1408e-02,0.0460781
7.1440e-02,0.04675
7.1472e-02,0.0449844
7.1504e-02,0.0440938
7.1536e-02,0.0429844
7.1568e-02,0.0429844
7.1600e-02,0.0421563
7.1632e-02,0.0418438
7.1664e-02,0.0405313
7.1696e-02,0.0410781
7.1728e-02,0.0418438
7.1760e-02,0.0415781
7.1792e-02,0.0405781
7.1824e-02,0.0420313
7.1856e-02,0.0440781
7.1888e-02,0.0440938
7.1920e-02,0.0451406
7.1952e-02,0.0494375
7.1984e-02,0.0499531
7.2016e-02,0.0514063
7.2048e-02,0.0520313
7.2080e-02,0.052
7.2112e-02,0.0520313
7.2144e-02,0.0539844
7.2176e-02,0.0566563
7.2208e-02,0.0595469
7.2240e-02,0.0599688
7.2272e-02,0.0594688
7.2304e-02,0.0610156
7.2336e-02,0.0644063
7.2368e-02,0.0672031
7.2400e-02,0.0688906
7.2432e-02,0.0704219
7.2464e-02,0.0705938
7.2496e-02,0.0718906
7.2528e-02,0.0723438
7.2560e-02,0.0742188
7.2592e-02,0.0757656
7.2624e-02,0.0753125
7.2656e-02,0.0728594
7.2688e-02,0.0712344
7.2720e-02,0.0718281
7.2752e-02,0.071625
7.2784e-02,0.0699688
7.2816e-02,0.0670625
7.2848e-02,0.0660156
7.2880e-02,0.0631094
7.2912e-02,0.059125
7.2944e-02,0.0574375
7.2976e-02,0.05325
7.3008e-02,0.05025
7.3040e-02,0.0495938
7.3072e-02,0.045375
7.3104e-02,0.0427813
7.3136e-02,0.0390625
7.3168e-02,0.0387344
7.3200e-02,0.0380625
7.3232e-02,0.0364844
7.3264e-02,0.0376563
7.3296e-02,0.0384375
7.3328e-02,0.0384844
7.3360e-02,0.0360781
7.3392e-02,0.0345
7.3424e-02,0.0347031
7.3456e-02,0.0322969
7.3488e-02,0.0337656
7.3520e-02,0.0350469
7.3552e-02,0.0345781
7.3584e-02,0.0352031
7.3616e-02,0.034625
7.3648e-02,0.0360625
7.3680e-02,0.035375
7.3712e-02,0.0345
7.3744e-02,0.0337344
7.3776e-02,0.0334688
7.3808e-02,0.0362188
7.3840e-02,0.0367188
7.3872e-02,0.0348594
7.3904e-02,0.0359844
7.3936e-02,0.0362813
7.3968e-02,0.0350156
7.4000e-02,0.0325156
7.4032e-02,0.0324375
7.4064e-02,0.0322188
7.4096e-02,0.0334375
7.4128e-02,0.0341719
7.4160e-02,0.0355625
7.4192e-02,0.034
7.4224e-02,0.0325
7.4256e-02,0.0335625
7.4288e-02,0.0320625
7.4320e-02,0.0303125
7.4352e-02,0.0279219
7.4384e-02,0.0289375
7.4416e-02,0.0306875
7.4448e-02,0.0318906
7.4480e-02,0.0295938
7.4512e-02,0.0301875
7.4544e-02,0.031875
7.4576e-02,0.0296719
7.4608e-02,0.0297656
7.4640e-02,0.0294063
7.4672e-02,0.0288125
7.4704e-02,0.0298125
7.4736e-02,0.0313281
7.4768e-02,0.0317969
7.4800e-02,0.0306563
7.4832e-02,0.0288906
7.4864e-02,0.0279375
7.4896e-02,0.0280781
7.4928e-02,0.0279844
7.4960e-02,0.0282031
7.4992e-02,0.0293906
7.5024e-02,0.0299375
7.5056e-02,0.0281563
7.5088e-02,0.027875
7.5120e-02,0.0272031
7.5152e-02,0.0278281
7.5184e-02,0.0293281
7.5216e-02,0.0315
7.5248e-02,0.0300938
7.5280e-02,0.0306406
7.5312e-02,0.029625
7.5344e-02,0.0309531
7.5376e-02,0.0294688
7.5408e-02,0.0298906
7.5440e-02,0.0298906
7.5472e-02,0.0299219
7.5504e-02,0.0299844
7.5536e-02,0.0292031
7.5568e-02,0.0291563
7.5600e-02,0.0296406
7.5632e-02,0.0300781
7.5664e-02,0.0285156
7.5696e-02,0.0272344
7.5728e-02,0.0279063
7.5760e-02,0.0288906
7.5792e-02,0.0276563
7.5824e-02,0.0280625
7.5856e-02,0.0289063
7.5888e-02,0.0304688
7.5920e-02,0.0294844
7.5952e-02,0.0314063
7.5984e-02,0.0313438
7.6016e-02,0.0309219
7.6048e-02,0.030625
7.6080e-02,0.0295469
7.6112e-02,0.0301406
7.6144e-02,0.0290625
7.6176e-02,0.0281094
7.6208e-02,0.0273906
7.6240e-02,0.0281406
7.6272e-02,0.0265625
7.6304e-02,0.0284375
7.6336e-02,0.0306094
7.6368e-02,0.0302188
7.6400e-02,0.0301875
7.6432e-02,0.0321719
7.6464e-02,0.0317969
7.6496e-02,0.03
7.6528e-02,0.0288438
7.6560e-02,0.0281563
7.6592e-02,0.02975
7.6624e-02,0.0301094
7.6656e-02,0.0287813
7.6688e-02,0.029875
7.6720e-02,0.0305313
7.6752e-02,0.0302188
7.6784e-02,0.0294531
7.6816e-02,0.0314531
7.6848e-02,0.0320156
7.6880e-02,0.0308594
7.6912e-02,0.0293281
7.6944e-02,0.0295938
7.6976e-02,0.0299219
7.7008e-02,0.0290781
7.7040e-02,0.0315781
7.7072e-02,0.0318125
7.7104e-02,0.0325625
7.7136e-02,0.0322031
7.7168e-02,0.0326094
7.7200e-02,0.0317969
7.7232e-02,0.0313125
7.7264e-02,0.0294844
7.7296e-02,0.0307031
7.7328e-02,0.0306719
7.7360e-02,0.0314844
7.7392e-02,0.0307188
7.7424e-02,0.0317656
7.7456e-02,0.031875
7.7488e-02,0.0339219
7.7520e-02,0.0353906
7.7552e-02,0.0327656
7.7584e-02,0.0328906
7.7616e-02,0.0337188
7.7648e-02,0.0345
7.7680e-02,0.0345469
7.7712e-02,0.0330625
7.7744e-02,0.03425
7.7776e-02,0.0377656
7.7808e-02,0.0397031
7.7840e-02,0.0412344
7.7872e-02,0.0382969
7.7904e-02,0.0391719
7.7936e-02,0.0416563
7.7968e-02,0.0425313
7.8000e-02,0.0435469
7.8032e-02,0.0460781
7.8064e-02,0.0484844
7.8096e-02,0.0455938
7.8128e-02,0.0468594
7.8160e-02,0.047625
7.8192e-02,0.0514844
7.8224e-02,0.0541719
7.8256e-02,0.0564063
7.8288e-02,0.0585781
7.8320e-02,0.058
7.8352e-02,0.0635156
7.8384e-02,0.0658438
7.8416e-02,0.0723438
7.8448e-02,0.0747969
7.8480e-02,0.0780313
7.8512e-02,0.0820156
7.8544e-02,0.0870156
7.8576e-02,0.0895469
7.8608e-02,0.0929844
7.8640e-02,0.0962969
7.8672e-02,0.100922
7.8704e-02,0.104938
7.8736e-02,0.10975
7.8768e-02,0.11375
7.8800e-02,0.118297
7.8832e-02,0.1225
7.8864e-02,0.125359
7.8896e-02,0.128906
7.8928e-02,0.129531
7.8960e-02,0.134016
7.8992e-02,0.139234
7.9024e-02,0.140219
7.9056e-02,0.148828
7.9088e-02,0.154844
7.9120e-02,0.162328
7.9152e-02,0.170891
7.9184e-02,0.178547
7.9216e-02,0.192672
7.9248e-02,0.204906
7.9280e-02,0.219063
7.9312e-02,0.233375
7.9344e-02,0.247891
7.9376e-02,0.256875
7.9408e-02,0.273094
7.9440e-02,0.284641
7.9472e-02,0.300141
7.9504e-02,0.309547
7.9536e-02,0.321453
7.9568e-02,0.331156
7.9600e-02,0.336125
7.9632e-02,0.339406
7.9664e-02,0.338922
7.9696e-02,0.329953
7.9728e-02,0.33125
7.9760e-02,0.332922
7.9792e-02,0.320047
7.9824e-02,0.306281
7.9856e-02,0.295203
7.9888e-02,0.279141
7.9920e-02,0.265719
7.9952e-02,0.253453
7.9984e-02,0.235375
8.0016e-02,0.217797
8.0048e-02,0.201141
8.0080e-02,0.185156
8.0112e-02,0.170688
8.0144e-02,0.153547
8.0176e-02,0.141266
8.0208e-02,0.135344
8.0240e-02,0.124859
8.0272e-02,0.118438
8.0304e-02,0.112891
8.0336e-02,0.103469
8.0368e-02,0.0981719
8.0400e-02,0.0943594
8.0432e-02,0.0941094
8.0464e-02,0.090625
8.0496e-02,0.088875
8.0528e-02,0.0866875
8.0560e-02,0.0846406
8.0592e-02,0.0834688
8.0624e-02,0.080625
8.0656e-02,0.0798281
8.0688e-02,0.080125
8.0720e-02,0.0759844
8.0752e-02,0.0733438
8.0784e-02,0.0695469
8.0816e-02,0.0673125
8.0848e-02,0.0641094
8.0880e-02,0.0617031
8.0912e-02,0.0582813
8.0944e-02,0.0539844
8.0976e-02,0.0516406
8.1008e-02,0.0506406
8.1040e-02,0.0505
8.1072e-02,0.047375
8.1104e-02,0.044875
8.1136e-02,0.0436094
8.1168e-02,0.0428906
8.1200e-02,0.0430313
8.1232e-02,0.0419688
8.1264e-02,0.0407813
8.1296e-02,0.0417188
8.1328e-02,0.0418125
8.1360e-02,0.0399844
8.1392e-02,0.0386875
8.1424e-02,0.038125
8.1456e-02,0.038625
8.1488e-02,0.0369688
8.1520e-02,0.0375
8.1552e-02,0.0385625
8.1584e-02,0.0394688
8.1616e-02,0.0365
8.1648e-02,0.0351719
8.1680e-02,0.0360156
8.1712e-02,0.0366875
8.1744e-02,0.0348125
8.1776e-02,0.0332656
8.1808e-02,0.0329063
8.1840e-02,0.0348281
8.1872e-02,0.0330156
8.1904e-02,0.0322031
8.1936e-02,0.0329063
8.1968e-02,0.0323906
8.2000e-02,0.0324375
8.2032e-02,0.0344375
8.2064e-02,0.0353281
8.2096e-02,0.0323906
8.2128e-02,0.0322813
8.2160e-02,0.0315938
8.2192e-02,0.0317969
8.2224e-02,0.03275
8.2256e-02,0.0319688
8.2288e-02,0.0321094
8.2320e-02,0.0313906
8.2352e-02,0.0317188
8.2384e-02,0.0311719
8.2416e-02,0.0331563
8.2448e-02,0.0323438
8.2480e-02,0.0320313
8.2512e-02,0.0315
8.2544e-02,0.0307344
8.2576e-02,0.0315
8.2608e-02,0.031125
8.2640e-02,0.0334375
8.2672e-02,0.0326406
8.2704e-02,0.0321094
8.2736e-02,0.0323906
8.2768e-02,0.0316563
8.2800e-02,0.0312031
8.2832e-02,0.0317344
8.2864e-02,0.0313594
8.2896e-02,0.0320469
8.2928e-02,0.0347188
8.2960e-02,0.0354844
8.2992e-02,0.0342969
8.3024e-02,0.0324219
8.3056e-02,0.0322188
8.3088e-02,0.0318281
8.3120e-02,0.0325781
8.3152e-02,0.0340156
8.3184e-02,0.0360156
8.3216e-02,0.0336406
8.3248e-02,0.034875
8.3280e-02,0.03525
8.3312e-02,0.0357813
8.3344e-02,0.0363125
8.3376e-02,0.0378125
8.3408e-02,0.037875
8.3440e-02,0.0378281
8.3472e-02,0.0397188
8.3504e-02,0.0405938
8.3536e-02,0.0403594
8.3568e-02,0.0407188
8.3600e-02,0.0412813
8.3632e-02,0.0435313
8.3664e-02,0.042125
8.3696e-02,0.0455625
8.3728e-02,0.0455781
8.3760e-02,0.0432344
8.3792e-02,0.0454844
8.3824e-02,0.0457031
8.3856e-02,0.0479531
8.3888e-02,0.0479531
8.3920e-02,0.0475781
8.3952e-02,0.0479219
8.3984e-02,0.0442031
8.4016e-02,0.0437813
8.4048e-02,0.0468906
8.4080e-02,0.0465625
8.4112e-02,0.046125
8.4144e-02,0.043
8.4176e-02,0.0428906
8.4208e-02,0.0432188
8.4240e-02,0.0422188
8.4272e-02,0.0400313
8.4304e-02,0.0395
8.4336e-02,0.0390469
8.4368e-02,0.0382344
8.4400e-02,0.0383125
8.4432e-02,0.0360469
8.4464e-02,0.0363438
8.4496e-02,0.0359375
8.4528e-02,0.0353281
8.4560e-02,0.0361094
8.4592e-02,0.0345
8.4624e-02,0.0344844
8.4656e-02,0.0347344
8.4688e-02,0.0344219
8.4720e-02,0.0351563
8.4752e-02,0.0361094
8.4784e-02,0.0399063
8.4816e-02,0.0381875
8.4848e-02,0.0380156
8.4880e-02,0.0370781
8.4912e-02,0.0364375
8.4944e-02,0.0375
8.4976e-02,0.0374375
8.5008e-02,0.0390625
8.5040e-02,0.0402813
8.5072e-02,0.0415469
8.5104e-02,0.0420313
8.5136e-02,0.0427344
8.5168e-02,0.0438906
8.5200e-02,0.0450313
8.5232e-02,0.0450313
8.5264e-02,0.0479531
8.5296e-02,0.0467031
8.5328e-02,0.0483438
8.5360e-02,0.0492344
8.5392e-02,0.0513906
8.5424e-02,0.0526094
8.5456e-02,0.0497188
8.5488e-02,0.0477969
8.5520e-02,0.047375
8.5552e-02,0.048375
8.5584e-02,0.047875
8.5616e-02,0.0479375
8.5648e-02,0.047125
8.5680e-02,0.0450938
8.5712e-02,0.0457344
8.5744e-02,0.0446563
8.5776e-02,0.0455625
8.5808e-02,0.0429531
8.5840e-02,0.0421406
8.5872e-02,0.0411094
8.5904e-02,0.0407344
8.5936e-02,0.0405313
8.5968e-02,0.0398906
8.6000e-02,0.0407813
8.6032e-02,0.0401563
8.6064e-02,0.039875
8.6096e-02,0.0382188
8.6128e-02,0.03925
8.6160e-02,0.03975
8.6192e-02,0.0405625
8.6224e-02,0.039125
8.6256e-02,0.0381406
8.6288e-02,0.0372188
8.6320e-02,0.0368594
8.6352e-02,0.0371563
8.6384e-02,0.0389063
8.6416e-02,0.0403906
8.6448e-02,0.0405469
8.6480e-02,0.0409531
8.6512e-02,0.0412656
8.6544e-02,0.0426563
8.6576e-02,0.0437344
8.6608e-02,0.0430469
8.6640e-02,0.0435469
8.6672e-02,0.0437188
8.6704e-02,0.0464531
8.6736e-02,0.0483438
8.6768e-02,0.0506094
8.6800e-02,0.0504219
8.6832e-02,0.0525625
8.6864e-02,0.0515
8.6896e-02,0.0528594
8.6928e-02,0.0559688
8.6960e-02,0.0595469
8.6992e-02,0.0626094
8.7024e-02,0.0657969
8.7056e-02,0.0702031
8.7088e-02,0.076125
8.7120e-02,0.0805625
8.7152e-02,0.0825469
8.7184e-02,0.0872656
8.7216e-02,0.0953906
8.7248e-02,0.101844
8.7280e-02,0.112047
8.7312e-02,0.117781
8.7344e-02,0.124703
8.7376e-02,0.139984
8.7408e-02,0.150781
8.7440e-02,0.159672
8.7472e-02,0.175125
8.7504e-02,0.190719
8.7536e-02,0.206313
8.7568e-02,0.226156
8.7600e-02,0.237781
8.7632e-02,0.248328
8.7664e-02,0.257844
8.7696e-02,0.266781
8.7728e-02,0.2795
8.7760e-02,0.292797
8.7792e-02,0.299016
8.7824e-02,0.296063
8.7856e-02,0.294844
8.7888e-02,0.292984
8.7920e-02,0.289109
8.7952e-02,0.286656
8.7984e-02,0.277094
8.8016e-02,0.271672
8.8048e-02,0.265188
8.8080e-02,0.252297
8.8112e-02,0.237391
8.8144e-02,0.227656
8.8176e-02,0.214359
8.8208e-02,0.197109
8.8240e-02,0.185391
8.8272e-02,0.170203
8.8304e-02,0.154766
8.8336e-02,0.138563
8.8368e-02,0.120844
8.8400e-02,0.109547
8.8432e-02,0.0978906
8.8464e-02,0.091
8.8496e-02,0.0809063
8.8528e-02,0.0736406
8.8560e-02,0.0672656
8.8592e-02,0.0636875
8.8624e-02,0.0572344
8.8656e-02,0.0530938
8.8688e-02,0.0519219
8.8720e-02,0.0487344
8.8752e-02,0.0480469
8.8784e-02,0.047375
8.8816e-02,0.0448125
8.8848e-02,0.0426563
8.8880e-02,0.0404688
8.8912e-02,0.0416406
8.8944e-02,0.0418906
8.8976e-02,0.0443594
8.9008e-02,0.0421406
8.9040e-02,0.0401406
8.9072e-02,0.0418594
8.9104e-02,0.042375
8.9136e-02,0.0421406
8.9168e-02,0.0425469
8.9200e-02,0.0414063
8.9232e-02,0.0444063
8.9264e-02,0.0443125
8.9296e-02,0.0429375
8.9328e-02,0.0436719
8.9360e-02,0.0459063
8.9392e-02,0.0469844
8.9424e-02,0.0490156
8.9456e-02,0.0497344
8.9488e-02,0.0477656
8.9520e-02,0.0522344
8.9552e-02,0.0552656
8.9584e-02,0.0565
8.9616e-02,0.0587031
8.9648e-02,0.0594688
8.9680e-02,0.0623438
8.9712e-02,0.0650469
8.9744e-02,0.0675938
8.9776e-02,0.0691719
8.9808e-02,0.0716406
8.9840e-02,0.0705
8.9872e-02,0.0717188
8.9904e-02,0.0701094
8.9936e-02,0.0736094
8.9968e-02,0.0735
9.0000e-02,0.0746563
9.0032e-02,0.0714844
9.0064e-02,0.0697813
9.0096e-02,0.068875
9.0128e-02,0.0680156
9.0160e-02,0.067
9.0192e-02,0.0657656
9.0224e-02,0.0624063
9.0256e-02,0.0612188
9.0288e-02,0.0568594
9.0320e-02,0.0557969
9.0352e-02,0.0529219
9.0384e-02,0.0501875
9.0416e-02,0.0472188
9.0448e-02,0.0460625
9.0480e-02,0.0433594
9.0512e-02,0.0404844
9.0544e-02,0.0392344
9.0576e-02,0.0372969
9.0608e-02,0.0354688
9.0640e-02,0.0362813
9.0672e-02,0.0365156
9.0704e-02,0.0361563
9.0736e-02,0.0360469
9.0768e-02,0.0357656
9.0800e-02,0.0377031
9.0832e-02,0.0372031
9.0864e-02,0.0368281
9.0896e-02,0.0349375
9.0928e-02,0.03575
9.0960e-02,0.0352188
9.0992e-02,0.0354688
9.1024e-02,0.0362031
9.1056e-02,0.0352188
9.1088e-02,0.0371094
9.1120e-02,0.0350313
9.1152e-02,0.0353125
9.1184e-02,0.0348594
9.1216e-02,0.0359688
9.1248e-02,0.0358281
9.1280e-02,0.0345469
9.1312e-02,0.0328438
9.1344e-02,0.0337344
9.1376e-02,0.0333438
9.1408e-02,0.0321719
9.1440e-02,0.0335938
9.1472e-02,0.033125
9.1504e-02,0.0322813
9.1536e-02,0.0326875
9.1568e-02,0.0325
9.1600e-02,0.0331719
9.1632e-02,0.0313438
9.1664e-02,0.0308125
9.1696e-02,0.0327656
9.1728e-02,0.0309219
9.1760e-02,0.0300469
9.1792e-02,0.0303438
9.1824e-02,0.0297344
9.1856e-02,0.0292969
9.1888e-02,0.0316406
9.1920e-02,0.0294375
9.1952e-02,0.0284219
9.1984e-02,0.0294844
9.2016e-02,0.0307031
9.2048e-02,0.0324531
9.2080e-02,0.0313594
9.2112e-02,0.0305
9.2144e-02,0.0300781
9.2176e-02,0.0281563
9.2208e-02,0.0303125
9.2240e-02,0.0298281
9.2272e-02,0.0295469
9.2304e-02,0.0292969
9.2336e-02,0.0290156
9.2368e-02,0.0302031
9.2400e-02,0.0290938
9.2432e-02,0.0304688
9.2464e-02,0.0293594
9.2496e-02,0.0302344
9.2528e-02,0.0298438
9.2560e-02,0.0286875
9.2592e-02,0.028125
9.2624e-02,0.028125
9.2656e-02,0.0306094
9.2688e-02,0.0304844
9.2720e-02,0.0312344
9.2752e-02,0.0298281
9.2784e-02,0.0304063
9.2816e-02,0.0304375
9.2848e-02,0.0279063
9.2880e-02,0.0292656
9.2912e-02,0.0284375
9.2944e-02,0.0301094
9.2976e-02,0.0296875
9.3008e-02,0.0286719
9.3040e-02,0.0297344
9.3072e-02,0.0282344
9.3104e-02,0.0281719
9.3136e-02,0.0283594
9.3168e-02,0.0276406
9.3200e-02,0.02725
9.3232e-02,0.0279375
9.3264e-02,0.0280781
9.3296e-02,0.0290781
9.3328e-02,0.0305
9.3360e-02,0.0288125
9.3392e-02,0.0297656
9.3424e-02,0.028875
9.3456e-02,0.0283438
9.3488e-02,0.0296406
9.3520e-02,0.0280313
9.3552e-02,0.0291094
9.3584e-02,0.0292188
9.3616e-02,0.0292656
9.3648e-02,0.02825
9.3680e-02,0.0293594
9.3712e-02,0.0292656
9.3744e-02,0.0286406
9.3776e-02,0.0294219
9.3808e-02,0.0312813
9.3840e-02,0.0309219
9.3872e-02,0.0284219
9.3904e-02,0.0295938
9.3936e-02,0.0273594
9.3968e-02,0.0285
9.4000e-02,0.0292969
9.4032e-02,0.0286563
9.4064e-02,0.0286094
9.4096e-02,0.0299688
9.4128e-02,0.0304219
9.4160e-02,0.0284219
9.4192e-02,0.0290469
9.4224e-02,0.0295781
9.4256e-02,0.0311094
9.4288e-02,0.0331094
9.4320e-02,0.0319063
9.4352e-02,0.0312969
9.4384e-02,0.0305156
9.4416e-02,0.0310313
9.4448e-02,0.0328906
9.4480e-02,0.0323281
9.4512e-02,0.0350625
9.4544e-02,0.0333438
9.4576e-02,0.0342969
9.4608e-02,0.035375
9.4640e-02,0.0356406
9.4672e-02,0.0335625
9.4704e-02,0.03275
9.4736e-02,0.0322344
9.4768e-02,0.0340781
9.4800e-02,0.0345313
9.4832e-02,0.0355938
9.4864e-02,0.037
9.4896e-02,0.0377969
9.4928e-02,0.0390469
9.4960e-02,0.0409531
9.4992e-02,0.0413438
9.5024e-02,0.0408281
9.5056e-02,0.0429375
9.5088e-02,0.044
9.5120e-02,0.0461563
9.5152e-02,0.0463594
9.5184e-02,0.0462813
9.5216e-02,0.0487969
9.5248e-02,0.0525156
9.5280e-02,0.052625
9.5312e-02,0.0526406
9.5344e-02,0.0534063
9.5376e-02,0.0532344
9.5408e-02,0.0580938
9.5440e-02,0.0609531
9.5472e-02,0.064
9.5504e-02,0.0666094
9.5536e-02,0.0683125
9.5568e-02,0.0720938
9.5600e-02,0.0742188
9.5632e-02,0.0776094
9.5664e-02,0.0825156
9.5696e-02,0.0865625
9.5728e-02,0.0925781
9.5760e-02,0.0966875
9.5792e-02,0.101609
9.5824e-02,0.105625
9.5856e-02,0.110813
9.5888e-02,0.116063
9.5920e-02,0.117391
9.5952e-02,0.126453
9.5984e-02,0.124984
9.6016e-02,0.131078
9.6048e-02,0.134594
9.6080e-02,0.144781
9.6112e-02,0.150281
9.6144e-02,0.156281
9.6176e-02,0.161531
9.6208e-02,0.168313
9.6240e-02,0.176391
9.6272e-02,0.187375
9.6304e-02,0.192813
9.6336e-02,0.202484
9.6368e-02,0.216625
9.6400e-02,0.225516
9.6432e-02,0.235
9.6464e-02,0.24875
9.6496e-02,0.264953
9.6528e-02,0.281109
9.6560e-02,0.284219
9.6592e-02,0.298922
9.6624e-02,0.308188
9.6656e-02,0.309094
9.6688e-02,0.315594
9.6720e-02,0.31275
9.6752e-02,0.31175
9.6784e-02,0.313594
9.6816e-02,0.305891
9.6848e-02,0.305063
9.6880e-02,0.304906
9.6912e-02,0.293391
9.6944e-02,0.287063
9.6976e-02,0.275578
9.7008e-02,0.266609
9.7040e-02,0.253344
9.7072e-02,0.241813
9.7104e-02,0.228531
9.7136e-02,0.211469
9.7168e-02,0.198156
9.7200e-02,0.180391
9.7232e-02,0.170813
9.7264e-02,0.159328
9.7296e-02,0.147766
9.7328e-02,0.13825
9.7360e-02,0.126688
9.7392e-02,0.117781
9.7424e-02,0.112938
9.7456e-02,0.10525
9.7488e-02,0.101703
9.7520e-02,0.0988125
9.7552e-02,0.0968438
9.7584e-02,0.0929063
9.7616e-02,0.0885625
9.7648e-02,0.0862813
9.7680e-02,0.0825625
9.7712e-02,0.0795625
9.7744e-02,0.0773438
9.7776e-02,0.0762813
9.7808e-02,0.073875
9.7840e-02,0.0693594
9.7872e-02,0.0629844
9.7904e-02,0.0614844
9.7936e-02,0.0596094
9.7968e-02,0.0587969
9.8000e-02,0.056125
9.8032e-02,0.0534531
9.8064e-02,0.0509688
9.8096e-02,0.0502656
9.8128e-02,0.0493281
9.8160e-02,0.0473906
9.8192e-02,0.0444844
9.8224e-02,0.0452656
9.8256e-02,0.0438281
9.8288e-02,0.0431406
9.8320e-02,0.0411406
9.8352e-02,0.0398438
9.8384e-02,0.0414844
9.8416e-02,0.0411719
9.8448e-02,0.0379063
9.8480e-02,0.0364375
9.8512e-02,0.0360313
9.8544e-02,0.0397813
9.8576e-02,0.0377813
9.8608e-02,0.0379844
9.8640e-02,0.0396406
9.8672e-02,0.0382969
9.8704e-02,0.0376563
9.8736e-02,0.0369219
9.8768e-02,0.0371094
9.8800e-02,0.038
9.8832e-02,0.0351406
9.8864e-02,0.0346719
9.8896e-02,0.0352813
9.8928e-02,0.0332031
9.8960e-02,0.0331094
9.8992e-02,0.0333906
9.9024e-02,0.0320156
9.9056e-02,0.033625
9.9088e-02,0.0338281
9.9120e-02,0.0345625
9.9152e-02,0.0335625
9.9184e-02,0.0331406
9.9216e-02,0.0364531
9.9248e-02,0.0342813
9.9280e-02,0.0329688
9.9312e-02,0.0302969
9.9344e-02,0.0313125
9.9376e-02,0.0316094
9.9408e-02,0.03225
9.9440e-02,0.0316719
9.9472e-02,0.0308906
9.9504e-02,0.0310156
9.9536e-02,0.0317656
9.9568e-02,0.0311563
9.9600e-02,0.0292344
9.9632e-02,0.0311719
9.9664e-02,0.0312031
9.9696e-02,0.0297656
9.9728e-02,0.031125
9.9760e-02,0.0317656
9.9792e-02,0.0313125
9.9824e-02,0.0298281
9.9856e-02,0.031375
9.9888e-02,0.0328438
9.9920e-02,0.03275
9.9952e-02,0.0312813
9.9984e-02,0.0320156
1.0002e-01,0.0321875
1.0005e-01,0.0325469
1.0008e-01,0.0326094
1.0011e-01,0.0320625
1.0014e-01,0.0316875
1.0018e-01,0.031875
1.0021e-01,0.0323594
1.0024e-01,0.0320469
1.0027e-01,0.0315469
1.0030e-01,0.0321406
1.0034e-01,0.03325
1.0037e-01,0.0343438
1.0040e-01,0.035875
1.0043e-01,0.0363906
1.0046e-01,0.0387813
1.0050e-01,0.0397344
1.0053e-01,0.0401875
1.0056e-01,0.0405313
1.0059e-01,0.0425625
1.0062e-01,0.0430156
1.0066e-01,0.0428594
1.0069e-01,0.0449531
1.0072e-01,0.0447188
1.0075e-01,0.044
1.0078e-01,0.0453281
1.0082e-01,0.0463125
1.0085e-01,0.046875
1.0088e-01,0.0456875
1.0091e-01,0.0453594
1.0094e-01,0.0455
1.0098e-01,0.0449688
1.0101e-01,0.0444063
1.0104e-01,0.0434688
1.0107e-01,0.0464219
1.0110e-01,0.0474844
1.0114e-01,0.0472344
1.0117e-01,0.046375
1.0120e-01,0.045
1.0123e-01,0.0445625
1.0126e-01,0.0443594
1.0130e-01,0.0421719
1.0133e-01,0.0400938
1.0136e-01,0.0407656
1.0139e-01,0.039875
1.0142e-01,0.0389844
1.0146e-01,0.0389375
1.0149e-01,0.0387031
1.0152e-01,0.0381406
1.0155e-01,0.0397813
1.0158e-01,0.0381719
1.0162e-01,0.0377656
1.0165e-01,0.0376406
1.0168e-01,0.0373594
1.0171e-01,0.0368906
1.0174e-01,0.0359219
1.0178e-01,0.0364844
1.0181e-01,0.0377188
1.0184e-01,0.0384531
1.0187e-01,0.0377656
1.0190e-01,0.0387188
1.0194e-01,0.0361563
1.0197e-01,0.0365469
1.0200e-01,0.0359688
1.0203e-01,0.03825
1.0206e-01,0.039125
1.0210e-01,0.0400313
1.0213e-01,0.0413906
1.0216e-01,0.0418594
1.0219e-01,0.0424375
1.0222e-01,0.0415469
1.0226e-01,0.0448438
1.0229e-01,0.0435625
1.0232e-01,0.0445313
1.0235e-01,0.0489375
1.0238e-01,0.0472656
1.0242e-01,0.0477188
1.0245e-01,0.0473125
1.0248e-01,0.0496094
1.0251e-01,0.0485938
1.0254e-01,0.0490156
1.0258e-01,0.0479375
1.0261e-01,0.0463438
1.0264e-01,0.0456094
1.0267e-01,0.0442031
1.0270e-01,0.0482813
1.0274e-01,0.0475
1.0277e-01,0.0487656
1.0280e-01,0.0456094
1.0283e-01,0.0466406
1.0286e-01,0.044875
1.0290e-01,0.0437813
1.0293e-01,0.0455156
1.0296e-01,0.0475156
1.0299e-01,0.0468594
1.0302e-01,0.0447031
1.0306e-01,0.0442813
1.0309e-01,0.0435625
1.0312e-01,0.0398281
1.0315e-01,0.039375
1.0318e-01,0.0376563
1.0322e-01,0.0361875
1.0325e-01,0.0388438
1.0328e-01,0.038875
1.0331e-01,0.0388281
1.0334e-01,0.03825
1.0338e-01,0.0374375
1.0341e-01,0.0386875
1.0344e-01,0.0402813
1.0347e-01,0.0394063
1.0350e-01,0.0370313
1.0354e-01,0.0402969
1.0357e-01,0.0399063
1.0360e-01,0.0407031
1.0363e-01,0.0432188
1.0366e-01,0.04425
1.0370e-01,0.0449063
1.0373e-01,0.0452969
1.0376e-01,0.0455781
1.0379e-01,0.0446719
1.0382e-01,0.0475313
1.0386e-01,0.0459219
1.0389e-01,0.0472969
1.0392e-01,0.0531719
1.0395e-01,0.0547656
1.0398e-01,0.0567969
1.0402e-01,0.0577031
1.0405e-01,0.0615156
1.0408e-01,0.0657031
1.0411e-01,0.0687813
1.0414e-01,0.0744531
1.0418e-01,0.0773125
1.0421e-01,0.0819688
1.0424e-01,0.0880313
1.0427e-01,0.0919531
1.0430e-01,0.0957813
1.0434e-01,0.106
1.0437e-01,0.113547
1.0440e-01,0.124078
1.0443e-01,0.134094
1.0446e-01,0.142172
1.0450e-01,0.153688
1.0453e-01,0.165438
1.0456e-01,0.175125
1.0459e-01,0.188203
1.0462e-01,0.200844
1.0466e-01,0.213031
1.0469e-01,0.23
1.0472e-01,0.242375
1.0475e-01,0.246391
1.0478e-01,0.256734
1.0482e-01,0.263672
1.0485e-01,0.268578
1.0488e-01,0.274938
1.0491e-01,0.275313
1.0494e-01,0.274719
1.0498e-01,0.275172
1.0501e-01,0.278469
1.0504e-01,0.283953
1.0507e-01,0.281484
1.0510e-01,0.278859
1.0514e-01,0.270188
1.0517e-01,0.267781
1.0520e-01,0.276391
1.0523e-01,0.277922
1.0526e-01,0.277219
1.0530e-01,0.278969
1.0533e-01,0.272375
1.0536e-01,0.270953
1.0539e-01,0.267031
1.0542e-01,0.254672
1.0546e-01,0.249656
1.0549e-01,0.242375
1.0552e-01,0.227625
1.0555e-01,0.219766
1.0558e-01,0.208906
1.0562e-01,0.197516
1.0565e-01,0.186578
1.0568e-01,0.172672
1.0571e-01,0.164906
1.0574e-01,0.153172
1.0578e-01,0.139766
1.0581e-01,0.127922
1.0584e-01,0.117547
1.0587e-01,0.106297
1.0590e-01,0.0970156
1.0594e-01,0.0915938
1.0597e-01,0.0819063
1.0600e-01,0.075
1.0603e-01,0.0700938
1.0606e-01,0.0648125
1.0610e-01,0.0612969
1.0613e-01,0.0595313
1.0616e-01,0.0560469
1.0619e-01,0.0517188
1.0622e-01,0.0479688
1.0626e-01,0.0448594
1.0629e-01,0.0429063
1.0632e-01,0.0424375
1.0635e-01,0.0405156
1.0638e-01,0.0400625
1.0642e-01,0.0428125
1.0645e-01,0.0438438
1.0648e-01,0.0440469
1.0651e-01,0.0467031
1.0654e-01,0.0474688
1.0658e-01,0.04775
1.0661e-01,0.047875
1.0664e-01,0.0478281
1.0667e-01,0.0457656
1.0670e-01,0.0444531
1.0674e-01,0.0406094
1.0677e-01,0.0400156
1.0680e-01,0.0398125
1.0683e-01,0.0399375
1.0686e-01,0.0395313
1.0690e-01,0.0397969
1.0693e-01,0.0400781
1.0696e-01,0.042875
1.0699e-01,0.0416563
1.0702e-01,0.0436875
1.0706e-01,0.0445469
1.0709e-01,0.0447813
1.0712e-01,0.0437188
1.0715e-01,0.0429844
1.0718e-01,0.0424063
1.0722e-01,0.0390938
1.0725e-01,0.0374219
1.0728e-01,0.0353906
1.0731e-01,0.0357656
1.0734e-01,0.0342813
1.0738e-01,0.0335625
1.0741e-01,0.0327813
1.0744e-01,0.0328438
1.0747e-01,0.0350156
1.0750e-01,0.0350781
1.0754e-01,0.0338438
1.0757e-01,0.0344219
1.0760e-01,0.0357969
1.0763e-01,0.0359219
1.0766e-01,0.0359375
1.0770e-01,0.0391563
1.0773e-01,0.0405938
1.0776e-01,0.0440313
1.0779e-01,0.0480625
1.0782e-01,0.0526563
1.0786e-01,0.0617188
1.0789e-01,0.0705625
1.0792e-01,0.0859844
1.0795e-01,0.109891
1.0798e-01,0.147859
1.0802e-01,0.185828
1.0805e-01,0.214719
1.0808e-01,0.232391
1.0811e-01,0.233563
1.0814e-01,0.226328
1.0818e-01,0.210844
1.0821e-01,0.188656
1.0824e-01,0.168766
1.0827e-01,0.150172
1.0830e-01,0.128453
1.0834e-01,0.108
1.0837e-01,0.0932813
1.0840e-01,0.0824531
1.0843e-01,0.0727188
1.0846e-01,0.0612031
1.0850e-01,0.0528281
1.0853e-01,0.0479063
1.0856e-01,0.0440625
1.0859e-01,0.0402969
1.0862e-01,0.0370156
1.0866e-01,0.0355
1.0869e-01,0.03375
1.0872e-01,0.0325313
1.0875e-01,0.0309688
1.0878e-01,0.0296875
1.0882e-01,0.0303125
1.0885e-01,0.031
1.0888e-01,0.0312031
1.0891e-01,0.0307813
1.0894e-01,0.0280313
1.0898e-01,0.0278594
1.0901e-01,0.0289688
1.0904e-01,0.0303125
1.0907e-01,0.0309219
1.0910e-01,0.0329063
1.0914e-01,0.0338594
1.0917e-01,0.0323125
1.0920e-01,0.0322344
1.0923e-01,0.0357969
1.0926e-01,0.0412656
1.0930e-01,0.0443906
1.0933e-01,0.0520313
1.0936e-01,0.0564219
1.0939e-01,0.0586094
1.0942e-01,0.0575469
1.0946e-01,0.0561094
1.0949e-01,0.0535625
1.0952e-01,0.0525625
1.0955e-01,0.0527656
1.0958e-01,0.06175
1.0962e-01,0.0879844
1.0965e-01,0.127813
1.0968e-01,0.163094
1.0971e-01,0.176344
1.0974e-01,0.186281
1.0978e-01,0.177797
1.0981e-01,0.156781


