Model,MSO2024
Firmware Version,1.52

Point Format,Y
Horizontal Units,S
Horizontal Scale,0.01
Sample Interval,3.2e-05
Filter Frequency,2e+08
Record Length,3125
Gating,0.0% to 100.0%
Probe Attenuation,1
Vertical Units,V
Vertical Offset,0
Vertical Scale,0.05
Label,
TIME,CH1
9.8400e-03,0.0733359
9.8720e-03,0.0769297
9.9040e-03,0.0764453
9.9360e-03,0.075625
9.9680e-03,0.0761094
1.0000e-02,0.0783281
1.0032e-02,0.0804766
1.0064e-02,0.0831406
1.0096e-02,0.0839063
1.0128e-02,0.0867031
1.0160e-02,0.0916641
1.0192e-02,0.0966406
1.0224e-02,0.0973828
1.0256e-02,0.0964219
1.0288e-02,0.106391
1.0320e-02,0.110281
1.0352e-02,0.112734
1.0384e-02,0.115453
1.0416e-02,0.128539
1.0448e-02,0.132008
1.0480e-02,0.139891
1.0512e-02,0.143422
1.0544e-02,0.149383
1.0576e-02,0.162031
1.0608e-02,0.16607
1.0640e-02,0.163
1.0672e-02,0.167172
1.0704e-02,0.176406
1.0736e-02,0.180953
1.0768e-02,0.184148
1.0800e-02,0.186422
1.0832e-02,0.184469
1.0864e-02,0.189836
1.0896e-02,0.189469
1.0928e-02,0.194336
1.0960e-02,0.197328
1.0992e-02,0.19957
1.1024e-02,0.19475
1.1056e-02,0.193906
1.1088e-02,0.188586
1.1120e-02,0.187063
1.1152e-02,0.185641
1.1184e-02,0.177281
1.1216e-02,0.173711
1.1248e-02,0.167672
1.1280e-02,0.160914
1.1312e-02,0.149484
1.1344e-02,0.143656
1.1376e-02,0.140211
1.1408e-02,0.131672
1.1440e-02,0.121156
1.1472e-02,0.10832
1.1504e-02,0.103969
1.1536e-02,0.0985859
1.1568e-02,0.0947813
1.1600e-02,0.0886719
1.1632e-02,0.0828359
1.1664e-02,0.0761484
1.1696e-02,0.0753594
1.1728e-02,0.0720859
1.1760e-02,0.0668281
1.1792e-02,0.0628281
1.1824e-02,0.0592109
1.1856e-02,0.0596484
1.1888e-02,0.0559219
1.1920e-02,0.0546328
1.1952e-02,0.0549766
1.1984e-02,0.0518672
1.2016e-02,0.0490938
1.2048e-02,0.0469453
1.2080e-02,0.0474688
1.2112e-02,0.0453906
1.2144e-02,0.0438906
1.2176e-02,0.0433984
1.2208e-02,0.0433906
1.2240e-02,0.0430391
1.2272e-02,0.0410313
1.2304e-02,0.0425547
1.2336e-02,0.0410703
1.2368e-02,0.0432266
1.2400e-02,0.0405
1.2432e-02,0.0389063
1.2464e-02,0.0407969
1.2496e-02,0.0425234
1.2528e-02,0.0389688
1.2560e-02,0.0386953
1.2592e-02,0.0405938
1.2624e-02,0.0438828
1.2656e-02,0.0437266
1.2688e-02,0.0436797
1.2720e-02,0.0466172
1.2752e-02,0.0479922
1.2784e-02,0.0464766
1.2816e-02,0.0454453
1.2848e-02,0.0444922
1.2880e-02,0.04725
1.2912e-02,0.0468438
1.2944e-02,0.0466563
1.2976e-02,0.0448828
1.3008e-02,0.0444609
1.3040e-02,0.0478203
1.3072e-02,0.0475625
1.3104e-02,0.0507578
1.3136e-02,0.0501328
1.3168e-02,0.0531328
1.3200e-02,0.0502344
1.3232e-02,0.0493594
1.3264e-02,0.0496406
1.3296e-02,0.0505391
1.3328e-02,0.0514531
1.3360e-02,0.0505859
1.3392e-02,0.0506875
1.3424e-02,0.0498594
1.3456e-02,0.0511641
1.3488e-02,0.0528359
1.3520e-02,0.0543125
1.3552e-02,0.0518672
1.3584e-02,0.0495703
1.3616e-02,0.0516172
1.3648e-02,0.0510234
1.3680e-02,0.0540391
1.3712e-02,0.0539922
1.3744e-02,0.0557266
1.3776e-02,0.0563516
1.3808e-02,0.0549844
1.3840e-02,0.0542891
1.3872e-02,0.0570547
1.3904e-02,0.0580313
1.3936e-02,0.0597344
1.3968e-02,0.0637266
1.4000e-02,0.0653203
1.4032e-02,0.0684219
1.4064e-02,0.0716875
1.4096e-02,0.07275
1.4128e-02,0.0770313
1.4160e-02,0.0799688
1.4192e-02,0.0825078
1.4224e-02,0.0827656
1.4256e-02,0.0882891
1.4288e-02,0.0934219
1.4320e-02,0.098375
1.4352e-02,0.101383
1.4384e-02,0.10182
1.4416e-02,0.106828
1.4448e-02,0.111969
1.4480e-02,0.111445
1.4512e-02,0.114852
1.4544e-02,0.116328
1.4576e-02,0.1165
1.4608e-02,0.111711
1.4640e-02,0.110703
1.4672e-02,0.108836
1.4704e-02,0.106156
1.4736e-02,0.105516
1.4768e-02,0.105227
1.4800e-02,0.101508
1.4832e-02,0.0952656
1.4864e-02,0.0921328
1.4896e-02,0.0905781
1.4928e-02,0.0892656
1.4960e-02,0.0809922
1.4992e-02,0.0759844
1.5024e-02,0.0715313
1.5056e-02,0.0651328
1.5088e-02,0.0614609
1.5120e-02,0.0578359
1.5152e-02,0.0556172
1.5184e-02,0.0552266
1.5216e-02,0.0545547
1.5248e-02,0.0492266
1.5280e-02,0.0457266
1.5312e-02,0.0455156
1.5344e-02,0.0421797
1.5376e-02,0.0440859
1.5408e-02,0.0428125
1.5440e-02,0.0456875
1.5472e-02,0.0425469
1.5504e-02,0.0426797
1.5536e-02,0.0442031
1.5568e-02,0.0442969
1.5600e-02,0.0453906
1.5632e-02,0.0438281
1.5664e-02,0.0422578
1.5696e-02,0.0406953
1.5728e-02,0.0443125
1.5760e-02,0.0417109
1.5792e-02,0.0429297
1.5824e-02,0.042375
1.5856e-02,0.0410859
1.5888e-02,0.0422266
1.5920e-02,0.0427734
1.5952e-02,0.0415156
1.5984e-02,0.03875
1.6016e-02,0.0407734
1.6048e-02,0.0399297
1.6080e-02,0.0414531
1.6112e-02,0.0405156
1.6144e-02,0.0382188
1.6176e-02,0.0355469
1.6208e-02,0.0374063
1.6240e-02,0.0367656
1.6272e-02,0.0371406
1.6304e-02,0.0345078
1.6336e-02,0.0333359
1.6368e-02,0.0323359
1.6400e-02,0.0328359
1.6432e-02,0.0327891
1.6464e-02,0.0314297
1.6496e-02,0.0309375
1.6528e-02,0.0292734
1.6560e-02,0.0293281
1.6592e-02,0.0298125
1.6624e-02,0.0303125
1.6656e-02,0.0322031
1.6688e-02,0.0331875
1.6720e-02,0.0309453
1.6752e-02,0.0308516
1.6784e-02,0.0299219
1.6816e-02,0.0283203
1.6848e-02,0.0307891
1.6880e-02,0.0314453
1.6912e-02,0.0310938
1.6944e-02,0.0346797
1.6976e-02,0.0362578
1.7008e-02,0.0325781
1.7040e-02,0.0313047
1.7072e-02,0.0296328
1.7104e-02,0.0307344
1.7136e-02,0.0318828
1.7168e-02,0.0325781
1.7200e-02,0.0318516
1.7232e-02,0.0317891
1.7264e-02,0.0309375
1.7296e-02,0.0297266
1.7328e-02,0.0311172
1.7360e-02,0.0305859
1.7392e-02,0.0304688
1.7424e-02,0.03175
1.7456e-02,0.0321406
1.7488e-02,0.0335469
1.7520e-02,0.0353438
1.7552e-02,0.0336094
1.7584e-02,0.0335625
1.7616e-02,0.0350078
1.7648e-02,0.0390391
1.7680e-02,0.0363203
1.7712e-02,0.0350234
1.7744e-02,0.0379609
1.7776e-02,0.0374297
1.7808e-02,0.0371328
1.7840e-02,0.0358438
1.7872e-02,0.0374609
1.7904e-02,0.0374922
1.7936e-02,0.0369297
1.7968e-02,0.0379609
1.8000e-02,0.0371875
1.8032e-02,0.0374453
1.8064e-02,0.0375547
1.8096e-02,0.0361172
1.8128e-02,0.0379766
1.8160e-02,0.03625
1.8192e-02,0.0347969
1.8224e-02,0.0332969
1.8256e-02,0.0333828
1.8288e-02,0.0321172
1.8320e-02,0.0323516
1.8352e-02,0.0317109
1.8384e-02,0.0327266
1.8416e-02,0.0327422
1.8448e-02,0.0328203
1.8480e-02,0.0339063
1.8512e-02,0.0337188
1.8544e-02,0.0314844
1.8576e-02,0.0310156
1.8608e-02,0.0319375
1.8640e-02,0.0324297
1.8672e-02,0.0321328
1.8704e-02,0.0303359
1.8736e-02,0.0289219
1.8768e-02,0.0307031
1.8800e-02,0.0279688
1.8832e-02,0.0285234
1.8864e-02,0.0287578
1.8896e-02,0.0287969
1.8928e-02,0.0309844
1.8960e-02,0.0316172
1.8992e-02,0.0302656
1.9024e-02,0.0296797
1.9056e-02,0.0286953
1.9088e-02,0.0310156
1.9120e-02,0.0316875
1.9152e-02,0.0321094
1.9184e-02,0.0307188
1.9216e-02,0.033
1.9248e-02,0.0321094
1.9280e-02,0.0325547
1.9312e-02,0.0315781
1.9344e-02,0.0329766
1.9376e-02,0.0325234
1.9408e-02,0.0328203
1.9440e-02,0.0326875
1.9472e-02,0.0325859
1.9504e-02,0.0351484
1.9536e-02,0.0359297
1.9568e-02,0.0326172
1.9600e-02,0.0318438
1.9632e-02,0.0334063
1.9664e-02,0.0356172
1.9696e-02,0.0346875
1.9728e-02,0.0356719
1.9760e-02,0.0370547
1.9792e-02,0.037875
1.9824e-02,0.0383047
1.9856e-02,0.0404844
1.9888e-02,0.0419141
1.9920e-02,0.0460938
1.9952e-02,0.0461953
1.9984e-02,0.046
2.0016e-02,0.0465156
2.0048e-02,0.0451484
2.0080e-02,0.045625
2.0112e-02,0.0482891
2.0144e-02,0.0501094
2.0176e-02,0.0483125
2.0208e-02,0.0471016
2.0240e-02,0.0490391
2.0272e-02,0.0515313
2.0304e-02,0.0563984
2.0336e-02,0.0536172
2.0368e-02,0.0504141
2.0400e-02,0.0532734
2.0432e-02,0.0511875
2.0464e-02,0.0513438
2.0496e-02,0.0576016
2.0528e-02,0.0550781
2.0560e-02,0.0545156
2.0592e-02,0.0557656
2.0624e-02,0.0548281
2.0656e-02,0.0587344
2.0688e-02,0.0603906
2.0720e-02,0.0602266
2.0752e-02,0.0632109
2.0784e-02,0.0676563
2.0816e-02,0.0694844
2.0848e-02,0.0731172
2.0880e-02,0.0759219
2.0912e-02,0.0783594
2.0944e-02,0.0866016
2.0976e-02,0.096125
2.1008e-02,0.0950859
2.1040e-02,0.10432
2.1072e-02,0.106227
2.1104e-02,0.106359
2.1136e-02,0.107297
2.1168e-02,0.116383
2.1200e-02,0.117688
2.1232e-02,0.126328
2.1264e-02,0.126227
2.1296e-02,0.124578
2.1328e-02,0.124258
2.1360e-02,0.122664
2.1392e-02,0.123047
2.1424e-02,0.118938
2.1456e-02,0.115898
2.1488e-02,0.109211
2.1520e-02,0.101875
2.1552e-02,0.0972578
2.1584e-02,0.0940156
2.1616e-02,0.0923984
2.1648e-02,0.0843047
2.1680e-02,0.0797734
2.1712e-02,0.0781563
2.1744e-02,0.0762109
2.1776e-02,0.0747188
2.1808e-02,0.0677422
2.1840e-02,0.0620469
2.1872e-02,0.0596328
2.1904e-02,0.0562266
2.1936e-02,0.0533281
2.1968e-02,0.0514141
2.2000e-02,0.0492109
2.2032e-02,0.0495469
2.2064e-02,0.0478672
2.2096e-02,0.0457969
2.2128e-02,0.0454297
2.2160e-02,0.0459688
2.2192e-02,0.0477734
2.2224e-02,0.0481328
2.2256e-02,0.0453438
2.2288e-02,0.0425313
2.2320e-02,0.0413828
2.2352e-02,0.0402422
2.2384e-02,0.0415
2.2416e-02,0.0417578
2.2448e-02,0.0385234
2.2480e-02,0.0369375
2.2512e-02,0.0366484
2.2544e-02,0.0372188
2.2576e-02,0.0407813
2.2608e-02,0.0399453
2.2640e-02,0.0396172
2.2672e-02,0.0388047
2.2704e-02,0.0397266
2.2736e-02,0.0389375
2.2768e-02,0.0421016
2.2800e-02,0.0422031
2.2832e-02,0.0435703
2.2864e-02,0.0423828
2.2896e-02,0.0466172
2.2928e-02,0.0460938
2.2960e-02,0.0471563
2.2992e-02,0.0467969
2.3024e-02,0.0483984
2.3056e-02,0.0499688
2.3088e-02,0.0521406
2.3120e-02,0.0529922
2.3152e-02,0.0547188
2.3184e-02,0.0529844
2.3216e-02,0.0547422
2.3248e-02,0.0571641
2.3280e-02,0.0586797
2.3312e-02,0.0581094
2.3344e-02,0.0628594
2.3376e-02,0.0652813
2.3408e-02,0.0683203
2.3440e-02,0.0690703
2.3472e-02,0.0727813
2.3504e-02,0.0785859
2.3536e-02,0.0809375
2.3568e-02,0.0833906
2.3600e-02,0.0858828
2.3632e-02,0.0906406
2.3664e-02,0.0946406
2.3696e-02,0.0982969
2.3728e-02,0.101406
2.3760e-02,0.108383
2.3792e-02,0.115891
2.3824e-02,0.120555
2.3856e-02,0.123922
2.3888e-02,0.130727
2.3920e-02,0.133734
2.3952e-02,0.138859
2.3984e-02,0.146977
2.4016e-02,0.159188
2.4048e-02,0.171156
2.4080e-02,0.174641
2.4112e-02,0.179406
2.4144e-02,0.1895
2.4176e-02,0.197297
2.4208e-02,0.200289
2.4240e-02,0.200172
2.4272e-02,0.202914
2.4304e-02,0.19993
2.4336e-02,0.198617
2.4368e-02,0.197148
2.4400e-02,0.194414
2.4432e-02,0.188234
2.4464e-02,0.192602
2.4496e-02,0.180469
2.4528e-02,0.172313
2.4560e-02,0.166797
2.4592e-02,0.16125
2.4624e-02,0.152625
2.4656e-02,0.144703
2.4688e-02,0.135867
2.4720e-02,0.128656
2.4752e-02,0.119344
2.4784e-02,0.116734
2.4816e-02,0.109742
2.4848e-02,0.0983125
2.4880e-02,0.0883672
2.4912e-02,0.0815859
2.4944e-02,0.0784531
2.4976e-02,0.0746406
2.5008e-02,0.0722344
2.5040e-02,0.0660234
2.5072e-02,0.0616563
2.5104e-02,0.0607891
2.5136e-02,0.0608125
2.5168e-02,0.0601094
2.5200e-02,0.0587891
2.5232e-02,0.0597969
2.5264e-02,0.0589453
2.5296e-02,0.0566875
2.5328e-02,0.0542422
2.5360e-02,0.0560859
2.5392e-02,0.0542266
2.5424e-02,0.0523438
2.5456e-02,0.0522813
2.5488e-02,0.0503359
2.5520e-02,0.0491406
2.5552e-02,0.0493594
2.5584e-02,0.0481641
2.5616e-02,0.0479219
2.5648e-02,0.0474844
2.5680e-02,0.0456641
2.5712e-02,0.0450469
2.5744e-02,0.0449844
2.5776e-02,0.0474453
2.5808e-02,0.0465938
2.5840e-02,0.0450938
2.5872e-02,0.0440859
2.5904e-02,0.0429766
2.5936e-02,0.0460625
2.5968e-02,0.0485
2.6000e-02,0.0461563
2.6032e-02,0.0436797
2.6064e-02,0.0442813
2.6096e-02,0.0450469
2.6128e-02,0.0458359
2.6160e-02,0.0459141
2.6192e-02,0.0491719
2.6224e-02,0.050125
2.6256e-02,0.0527266
2.6288e-02,0.0519453
2.6320e-02,0.0510313
2.6352e-02,0.0538359
2.6384e-02,0.0541797
2.6416e-02,0.0533906
2.6448e-02,0.0545938
2.6480e-02,0.0535859
2.6512e-02,0.0552813
2.6544e-02,0.0590703
2.6576e-02,0.0609219
2.6608e-02,0.0607969
2.6640e-02,0.0600938
2.6672e-02,0.0622656
2.6704e-02,0.0667891
2.6736e-02,0.0661406
2.6768e-02,0.0688047
2.6800e-02,0.0725859
2.6832e-02,0.0772422
2.6864e-02,0.0790859
2.6896e-02,0.0808047
2.6928e-02,0.0848125
2.6960e-02,0.0871406
2.6992e-02,0.0906641
2.7024e-02,0.0937109
2.7056e-02,0.0990234
2.7088e-02,0.10332
2.7120e-02,0.103875
2.7152e-02,0.108875
2.7184e-02,0.110602
2.7216e-02,0.114203
2.7248e-02,0.11493
2.7280e-02,0.116031
2.7312e-02,0.117438
2.7344e-02,0.119859
2.7376e-02,0.121102
2.7408e-02,0.119117
2.7440e-02,0.110844
2.7472e-02,0.10593
2.7504e-02,0.102563
2.7536e-02,0.0965625
2.7568e-02,0.0923828
2.7600e-02,0.0871016
2.7632e-02,0.0785391
2.7664e-02,0.0751406
2.7696e-02,0.0716953
2.7728e-02,0.069
2.7760e-02,0.0639453
2.7792e-02,0.0607188
2.7824e-02,0.0535781
2.7856e-02,0.0524375
2.7888e-02,0.0551094
2.7920e-02,0.0544297
2.7952e-02,0.0522031
2.7984e-02,0.0505156
2.8016e-02,0.04725
2.8048e-02,0.0463516
2.8080e-02,0.0525703
2.8112e-02,0.0505781
2.8144e-02,0.0522813
2.8176e-02,0.0504141
2.8208e-02,0.0506875
2.8240e-02,0.0494531
2.8272e-02,0.0512578
2.8304e-02,0.0544375
2.8336e-02,0.0531172
2.8368e-02,0.0518594
2.8400e-02,0.0476797
2.8432e-02,0.0493906
2.8464e-02,0.0490781
2.8496e-02,0.0518359
2.8528e-02,0.0510156
2.8560e-02,0.0522266
2.8592e-02,0.0517188
2.8624e-02,0.0525
2.8656e-02,0.0522422
2.8688e-02,0.0485781
2.8720e-02,0.0459219
2.8752e-02,0.0437266
2.8784e-02,0.0431172
2.8816e-02,0.04375
2.8848e-02,0.0427813
2.8880e-02,0.0422578
2.8912e-02,0.0410547
2.8944e-02,0.0380547
2.8976e-02,0.0346563
2.9008e-02,0.0328359
2.9040e-02,0.0348438
2.9072e-02,0.0334844
2.9104e-02,0.0315
2.9136e-02,0.0312031
2.9168e-02,0.0308359
2.9200e-02,0.0330938
2.9232e-02,0.0330625
2.9264e-02,0.0323047
2.9296e-02,0.0316563
2.9328e-02,0.0331328
2.9360e-02,0.0314531
2.9392e-02,0.031875
2.9424e-02,0.0331484
2.9456e-02,0.0333359
2.9488e-02,0.0337266
2.9520e-02,0.0358203
2.9552e-02,0.0356094
2.9584e-02,0.0361016
2.9616e-02,0.0339688
2.9648e-02,0.0348906
2.9680e-02,0.0353047
2.9712e-02,0.0327734
2.9744e-02,0.0306953
2.9776e-02,0.0326406
2.9808e-02,0.0352969
2.9840e-02,0.0320469
2.9872e-02,0.0326406
2.9904e-02,0.0350625
2.9936e-02,0.0335859
2.9968e-02,0.0341719
3.0000e-02,0.0337422
3.0032e-02,0.0329844
3.0064e-02,0.0324453
3.0096e-02,0.0347031
3.0128e-02,0.0350078
3.0160e-02,0.0354453
3.0192e-02,0.0370391
3.0224e-02,0.0393203
3.0256e-02,0.0363828
3.0288e-02,0.0339688
3.0320e-02,0.0383047
3.0352e-02,0.0407266
3.0384e-02,0.0392031
3.0416e-02,0.0373047
3.0448e-02,0.0378672
3.0480e-02,0.0373906
3.0512e-02,0.0390078
3.0544e-02,0.0415
3.0576e-02,0.0428203
3.0608e-02,0.0426172
3.0640e-02,0.0440078
3.0672e-02,0.0437109
3.0704e-02,0.0431953
3.0736e-02,0.0446875
3.0768e-02,0.0460703
3.0800e-02,0.0468516
3.0832e-02,0.0470859
3.0864e-02,0.0451406
3.0896e-02,0.0486094
3.0928e-02,0.0462266
3.0960e-02,0.0486641
3.0992e-02,0.0516953
3.1024e-02,0.053
3.1056e-02,0.0548125
3.1088e-02,0.0553672
3.1120e-02,0.0564844
3.1152e-02,0.0587891
3.1184e-02,0.0639141
3.1216e-02,0.0632969
3.1248e-02,0.0643594
3.1280e-02,0.0733281
3.1312e-02,0.0755391
3.1344e-02,0.0792891
3.1376e-02,0.0829219
3.1408e-02,0.0898828
3.1440e-02,0.0962109
3.1472e-02,0.103227
3.1504e-02,0.106945
3.1536e-02,0.110336
3.1568e-02,0.113664
3.1600e-02,0.117523
3.1632e-02,0.11718
3.1664e-02,0.116953
3.1696e-02,0.117805
3.1728e-02,0.118109
3.1760e-02,0.119266
3.1792e-02,0.11318
3.1824e-02,0.111516
3.1856e-02,0.109578
3.1888e-02,0.104164
3.1920e-02,0.0996328
3.1952e-02,0.0931641
3.1984e-02,0.087
3.2016e-02,0.0844766
3.2048e-02,0.0778359
3.2080e-02,0.0696641
3.2112e-02,0.066625
3.2144e-02,0.0645938
3.2176e-02,0.0614141
3.2208e-02,0.0573359
3.2240e-02,0.0519375
3.2272e-02,0.0484609
3.2304e-02,0.0461016
3.2336e-02,0.0462656
3.2368e-02,0.0453516
3.2400e-02,0.0423594
3.2432e-02,0.0412734
3.2464e-02,0.0413047
3.2496e-02,0.0418203
3.2528e-02,0.0429219
3.2560e-02,0.0405703
3.2592e-02,0.0403047
3.2624e-02,0.0416797
3.2656e-02,0.0420078
3.2688e-02,0.0423828
3.2720e-02,0.0430156
3.2752e-02,0.0418359
3.2784e-02,0.0427734
3.2816e-02,0.040375
3.2848e-02,0.0395391
3.2880e-02,0.0397188
3.2912e-02,0.0436797
3.2944e-02,0.0407891
3.2976e-02,0.0406563
3.3008e-02,0.0423281
3.3040e-02,0.0430859
3.3072e-02,0.0441172
3.3104e-02,0.0445547
3.3136e-02,0.04525
3.3168e-02,0.0478672
3.3200e-02,0.0491641
3.3232e-02,0.0496094
3.3264e-02,0.0501016
3.3296e-02,0.0524297
3.3328e-02,0.0550547
3.3360e-02,0.0545625
3.3392e-02,0.0538516
3.3424e-02,0.0550078
3.3456e-02,0.059375
3.3488e-02,0.0593438
3.3520e-02,0.0587031
3.3552e-02,0.0590156
3.3584e-02,0.0615
3.3616e-02,0.0612969
3.3648e-02,0.0634297
3.3680e-02,0.0627031
3.3712e-02,0.06575
3.3744e-02,0.0723672
3.3776e-02,0.0787344
3.3808e-02,0.0873359
3.3840e-02,0.0945
3.3872e-02,0.0983984
3.3904e-02,0.105492
3.3936e-02,0.111633
3.3968e-02,0.120477
3.4000e-02,0.129563
3.4032e-02,0.140227
3.4064e-02,0.150508
3.4096e-02,0.160719
3.4128e-02,0.167609
3.4160e-02,0.171859
3.4192e-02,0.179305
3.4224e-02,0.186844
3.4256e-02,0.194
3.4288e-02,0.196719
3.4320e-02,0.199477
3.4352e-02,0.197922
3.4384e-02,0.195344
3.4416e-02,0.185344
3.4448e-02,0.180031
3.4480e-02,0.171891
3.4512e-02,0.162852
3.4544e-02,0.156023
3.4576e-02,0.142719
3.4608e-02,0.12918
3.4640e-02,0.12275
3.4672e-02,0.106219
3.4704e-02,0.0961797
3.4736e-02,0.0886016
3.4768e-02,0.0807656
3.4800e-02,0.0702031
3.4832e-02,0.0653672
3.4864e-02,0.0660313
3.4896e-02,0.0604531
3.4928e-02,0.0562422
3.4960e-02,0.0531953
3.4992e-02,0.0488594
3.5024e-02,0.0461641
3.5056e-02,0.047875
3.5088e-02,0.0446016
3.5120e-02,0.0432188
3.5152e-02,0.0421875
3.5184e-02,0.0419453
3.5216e-02,0.0394922
3.5248e-02,0.0394063
3.5280e-02,0.0387422
3.5312e-02,0.0389141
3.5344e-02,0.0387734
3.5376e-02,0.0387109
3.5408e-02,0.0418203
3.5440e-02,0.0431328
3.5472e-02,0.0443984
3.5504e-02,0.0444063
3.5536e-02,0.0437734
3.5568e-02,0.0416172
3.5600e-02,0.0436563
3.5632e-02,0.0433125
3.5664e-02,0.0453125
3.5696e-02,0.0452188
3.5728e-02,0.0449922
3.5760e-02,0.0455938
3.5792e-02,0.0445391
3.5824e-02,0.0445313
3.5856e-02,0.0488281
3.5888e-02,0.0482109
3.5920e-02,0.0493906
3.5952e-02,0.0485859
3.5984e-02,0.0502734
3.6016e-02,0.0479453
3.6048e-02,0.0466953
3.6080e-02,0.0480234
3.6112e-02,0.0492656
3.6144e-02,0.0509844
3.6176e-02,0.0530156
3.6208e-02,0.0522891
3.6240e-02,0.0519531
3.6272e-02,0.0518516
3.6304e-02,0.0561797
3.6336e-02,0.0614063
3.6368e-02,0.0608125
3.6400e-02,0.0592734
3.6432e-02,0.0599766
3.6464e-02,0.0646797
3.6496e-02,0.068875
3.6528e-02,0.0715
3.6560e-02,0.0767813
3.6592e-02,0.0818281
3.6624e-02,0.0853438
3.6656e-02,0.0839375
3.6688e-02,0.0853047
3.6720e-02,0.0895938
3.6752e-02,0.102344
3.6784e-02,0.108438
3.6816e-02,0.109336
3.6848e-02,0.113625
3.6880e-02,0.113828
3.6912e-02,0.113188
3.6944e-02,0.113844
3.6976e-02,0.114875
3.7008e-02,0.10982
3.7040e-02,0.107453
3.7072e-02,0.108547
3.7104e-02,0.100297
3.7136e-02,0.0959531
3.7168e-02,0.0910625
3.7200e-02,0.08925
3.7232e-02,0.0851641
3.7264e-02,0.0790938
3.7296e-02,0.0762188
3.7328e-02,0.0699219
3.7360e-02,0.0621484
3.7392e-02,0.0595781
3.7424e-02,0.0560625
3.7456e-02,0.0524297
3.7488e-02,0.0503516
3.7520e-02,0.0478984
3.7552e-02,0.0452109
3.7584e-02,0.0454141
3.7616e-02,0.0463438
3.7648e-02,0.0436563
3.7680e-02,0.0433672
3.7712e-02,0.0425859
3.7744e-02,0.0413594
3.7776e-02,0.045125
3.7808e-02,0.0444297
3.7840e-02,0.0448594
3.7872e-02,0.0486094
3.7904e-02,0.0479609
3.7936e-02,0.0451797
3.7968e-02,0.0438828
3.8000e-02,0.0437031
3.8032e-02,0.0449297
3.8064e-02,0.04525
3.8096e-02,0.0472031
3.8128e-02,0.0420469
3.8160e-02,0.0412969
3.8192e-02,0.0390391
3.8224e-02,0.0399531
3.8256e-02,0.0370078
3.8288e-02,0.0359531
3.8320e-02,0.0329219
3.8352e-02,0.0328438
3.8384e-02,0.0353125
3.8416e-02,0.0344063
3.8448e-02,0.0325938
3.8480e-02,0.0307188
3.8512e-02,0.0298594
3.8544e-02,0.0329375
3.8576e-02,0.0328984
3.8608e-02,0.0344297
3.8640e-02,0.0333281
3.8672e-02,0.0353203
3.8704e-02,0.0349297
3.8736e-02,0.0333672
3.8768e-02,0.0288594
3.8800e-02,0.0287734
3.8832e-02,0.0306328
3.8864e-02,0.0318984
3.8896e-02,0.0306484
3.8928e-02,0.0291094
3.8960e-02,0.0309219
3.8992e-02,0.0301406
3.9024e-02,0.0312734
3.9056e-02,0.03025
3.9088e-02,0.0312031
3.9120e-02,0.0295313
3.9152e-02,0.032375
3.9184e-02,0.03275
3.9216e-02,0.0331172
3.9248e-02,0.0330703
3.9280e-02,0.0335391
3.9312e-02,0.0336875
3.9344e-02,0.0316563
3.9376e-02,0.0344141
3.9408e-02,0.0361094
3.9440e-02,0.0370781
3.9472e-02,0.0390781
3.9504e-02,0.0392344
3.9536e-02,0.0379063
3.9568e-02,0.0380234
3.9600e-02,0.0365938
3.9632e-02,0.0352813
3.9664e-02,0.0357969
3.9696e-02,0.0346016
3.9728e-02,0.0340313
3.9760e-02,0.0332656
3.9792e-02,0.0327031
3.9824e-02,0.0373047
3.9856e-02,0.0348516
3.9888e-02,0.0339688
3.9920e-02,0.0333359
3.9952e-02,0.0343672
3.9984e-02,0.0333438
4.0016e-02,0.0336328
4.0048e-02,0.0361563
4.0080e-02,0.0342344
4.0112e-02,0.0329375
4.0144e-02,0.0332422
4.0176e-02,0.03325
4.0208e-02,0.03275
4.0240e-02,0.0310078
4.0272e-02,0.0284609
4.0304e-02,0.0289453
4.0336e-02,0.0307266
4.0368e-02,0.0291563
4.0400e-02,0.0283438
4.0432e-02,0.0286719
4.0464e-02,0.0289453
4.0496e-02,0.0284297
4.0528e-02,0.0317656
4.0560e-02,0.0306094
4.0592e-02,0.0305469
4.0624e-02,0.0308672
4.0656e-02,0.0324844
4.0688e-02,0.0321172
4.0720e-02,0.0345859
4.0752e-02,0.0329219
4.0784e-02,0.0341953
4.0816e-02,0.0314844
4.0848e-02,0.0325625
4.0880e-02,0.0315313
4.0912e-02,0.0315938
4.0944e-02,0.0310469
4.0976e-02,0.0312344
4.1008e-02,0.0307344
4.1040e-02,0.0309922
4.1072e-02,0.0327188
4.1104e-02,0.0350078
4.1136e-02,0.0382813
4.1168e-02,0.0403516
4.1200e-02,0.0411875
4.1232e-02,0.0416719
4.1264e-02,0.0404141
4.1296e-02,0.0395
4.1328e-02,0.0421641
4.1360e-02,0.0422578
4.1392e-02,0.0405313
4.1424e-02,0.0410391
4.1456e-02,0.0413906
4.1488e-02,0.0446172
4.1520e-02,0.0492813
4.1552e-02,0.0493359
4.1584e-02,0.04675
4.1616e-02,0.0480078
4.1648e-02,0.0496719
4.1680e-02,0.0494375
4.1712e-02,0.0487422
4.1744e-02,0.05225
4.1776e-02,0.0540234
4.1808e-02,0.0521406
4.1840e-02,0.0528906
4.1872e-02,0.0544375
4.1904e-02,0.0549922
4.1936e-02,0.0556797
4.1968e-02,0.0586172
4.2000e-02,0.0621797
4.2032e-02,0.0626484
4.2064e-02,0.0628984
4.2096e-02,0.0664609
4.2128e-02,0.0705234
4.2160e-02,0.0742188
4.2192e-02,0.0813047
4.2224e-02,0.0856484
4.2256e-02,0.0894844
4.2288e-02,0.0955625
4.2320e-02,0.10025
4.2352e-02,0.103703
4.2384e-02,0.105469
4.2416e-02,0.112352
4.2448e-02,0.113078
4.2480e-02,0.118805
4.2512e-02,0.118641
4.2544e-02,0.118688
4.2576e-02,0.118102
4.2608e-02,0.120219
4.2640e-02,0.118141
4.2672e-02,0.113656
4.2704e-02,0.110523
4.2736e-02,0.105336
4.2768e-02,0.103969
4.2800e-02,0.0994219
4.2832e-02,0.0947656
4.2864e-02,0.0891953
4.2896e-02,0.0830391
4.2928e-02,0.0785
4.2960e-02,0.0736406
4.2992e-02,0.0705078
4.3024e-02,0.065375
4.3056e-02,0.0639375
4.3088e-02,0.062125
4.3120e-02,0.0562031
4.3152e-02,0.0526953
4.3184e-02,0.0486016
4.3216e-02,0.0479688
4.3248e-02,0.0494922
4.3280e-02,0.046875
4.3312e-02,0.0471563
4.3344e-02,0.0451563
4.3376e-02,0.0427969
4.3408e-02,0.0451484
4.3440e-02,0.0424063
4.3472e-02,0.0408047
4.3504e-02,0.0402969
4.3536e-02,0.0386328
4.3568e-02,0.0375547
4.3600e-02,0.0366484
4.3632e-02,0.0370938
4.3664e-02,0.0397969
4.3696e-02,0.0382813
4.3728e-02,0.0374063
4.3760e-02,0.0373672
4.3792e-02,0.0398516
4.3824e-02,0.0427891
4.3856e-02,0.0421563
4.3888e-02,0.0422891
4.3920e-02,0.0410859
4.3952e-02,0.0410703
4.3984e-02,0.042875
4.4016e-02,0.0428203
4.4048e-02,0.0471094
4.4080e-02,0.0448828
4.4112e-02,0.0483672
4.4144e-02,0.0490625
4.4176e-02,0.0491094
4.4208e-02,0.0513203
4.4240e-02,0.0545391
4.4272e-02,0.0568516
4.4304e-02,0.0578672
4.4336e-02,0.0626406
4.4368e-02,0.0653047
4.4400e-02,0.0680234
4.4432e-02,0.0698828
4.4464e-02,0.0728828
4.4496e-02,0.0737109
4.4528e-02,0.0764688
4.4560e-02,0.0815625
4.4592e-02,0.0868047
4.4624e-02,0.0892578
4.4656e-02,0.0951953
4.4688e-02,0.100508
4.4720e-02,0.112852
4.4752e-02,0.115891
4.4784e-02,0.125938
4.4816e-02,0.125961
4.4848e-02,0.133352
4.4880e-02,0.14125
4.4912e-02,0.150406
4.4944e-02,0.156719
4.4976e-02,0.164742
4.5008e-02,0.169758
4.5040e-02,0.175773
4.5072e-02,0.17707
4.5104e-02,0.192211
4.5136e-02,0.190492
4.5168e-02,0.192641
4.5200e-02,0.190359
4.5232e-02,0.182367
4.5264e-02,0.18932
4.5296e-02,0.184805
4.5328e-02,0.180414
4.5360e-02,0.18025
4.5392e-02,0.175742
4.5424e-02,0.166844
4.5456e-02,0.158438
4.5488e-02,0.151063
4.5520e-02,0.141109
4.5552e-02,0.129539
4.5584e-02,0.125117
4.5616e-02,0.119438
4.5648e-02,0.110586
4.5680e-02,0.102172
4.5712e-02,0.0940938
4.5744e-02,0.0862344
4.5776e-02,0.0798516
4.5808e-02,0.0777422
4.5840e-02,0.0696797
4.5872e-02,0.0693984
4.5904e-02,0.0702656
4.5936e-02,0.0682734
4.5968e-02,0.0677813
4.6000e-02,0.0624609
4.6032e-02,0.0598047
4.6064e-02,0.0558984
4.6096e-02,0.0506328
4.6128e-02,0.049625
4.6160e-02,0.0500391
4.6192e-02,0.0488594
4.6224e-02,0.0470391
4.6256e-02,0.0443359
4.6288e-02,0.0432344
4.6320e-02,0.0443906
4.6352e-02,0.0484531
4.6384e-02,0.0501016
4.6416e-02,0.0484453
4.6448e-02,0.0472969
4.6480e-02,0.0460156
4.6512e-02,0.0434609
4.6544e-02,0.044875
4.6576e-02,0.0452813
4.6608e-02,0.0465938
4.6640e-02,0.0511094
4.6672e-02,0.0476016
4.6704e-02,0.0460078
4.6736e-02,0.0464063
4.6768e-02,0.0454844
4.6800e-02,0.0472891
4.6832e-02,0.0466563
4.6864e-02,0.046125
4.6896e-02,0.0442266
4.6928e-02,0.0453516
4.6960e-02,0.0469141
4.6992e-02,0.0509609
4.7024e-02,0.0524063
4.7056e-02,0.0555703
4.7088e-02,0.0553047
4.7120e-02,0.0521719
4.7152e-02,0.0535078
4.7184e-02,0.0574219
4.7216e-02,0.0588047
4.7248e-02,0.0621328
4.7280e-02,0.0640625
4.7312e-02,0.0659141
4.7344e-02,0.0683203
4.7376e-02,0.0738438
4.7408e-02,0.0756484
4.7440e-02,0.0761719
4.7472e-02,0.0779141
4.7504e-02,0.0808828
4.7536e-02,0.0876875
4.7568e-02,0.0898359
4.7600e-02,0.0927578
4.7632e-02,0.0967969
4.7664e-02,0.103031
4.7696e-02,0.107273
4.7728e-02,0.109602
4.7760e-02,0.112563
4.7792e-02,0.113508
4.7824e-02,0.112555
4.7856e-02,0.109977
4.7888e-02,0.11375
4.7920e-02,0.112539
4.7952e-02,0.111898
4.7984e-02,0.108758
4.8016e-02,0.105148
4.8048e-02,0.103219
4.8080e-02,0.103602
4.8112e-02,0.0934844
4.8144e-02,0.0868984
4.8176e-02,0.0839844
4.8208e-02,0.0814219
4.8240e-02,0.0746953
4.8272e-02,0.0698281
4.8304e-02,0.06575
4.8336e-02,0.0601875
4.8368e-02,0.0596641
4.8400e-02,0.0570625
4.8432e-02,0.0565625
4.8464e-02,0.0518594
4.8496e-02,0.0490156
4.8528e-02,0.0504531
4.8560e-02,0.0480156
4.8592e-02,0.0477969
4.8624e-02,0.0488281
4.8656e-02,0.0484063
4.8688e-02,0.0489844
4.8720e-02,0.0507344
4.8752e-02,0.0498125
4.8784e-02,0.0500234
4.8816e-02,0.0518438
4.8848e-02,0.0502734
4.8880e-02,0.0501719
4.8912e-02,0.0535
4.8944e-02,0.0542656
4.8976e-02,0.0505938
4.9008e-02,0.0508594
4.9040e-02,0.0499844
4.9072e-02,0.0467656
4.9104e-02,0.0480156
4.9136e-02,0.0478281
4.9168e-02,0.0467969
4.9200e-02,0.0470234
4.9232e-02,0.0435625
4.9264e-02,0.0430547
4.9296e-02,0.04275
4.9328e-02,0.0409609
4.9360e-02,0.0393203
4.9392e-02,0.0351875
4.9424e-02,0.0343828
4.9456e-02,0.0339375
4.9488e-02,0.0323828
4.9520e-02,0.0315
4.9552e-02,0.0323594
4.9584e-02,0.0327031
4.9616e-02,0.0335938
4.9648e-02,0.0318281
4.9680e-02,0.0303594
4.9712e-02,0.0315
4.9744e-02,0.0312969
4.9776e-02,0.0313125
4.9808e-02,0.03225
4.9840e-02,0.0309688
4.9872e-02,0.0321094
4.9904e-02,0.0327578
4.9936e-02,0.0322656
4.9968e-02,0.0312891
5.0000e-02,0.0327109
5.0032e-02,0.0317578
5.0064e-02,0.0332969
5.0096e-02,0.0335938
5.0128e-02,0.0340781
5.0160e-02,0.0337109
5.0192e-02,0.0332969
5.0224e-02,0.0323281
5.0256e-02,0.0312891
5.0288e-02,0.0313984
5.0320e-02,0.0319375
5.0352e-02,0.0334453
5.0384e-02,0.0335469
5.0416e-02,0.0336172
5.0448e-02,0.0358516
5.0480e-02,0.0338125
5.0512e-02,0.0351797
5.0544e-02,0.0353984
5.0576e-02,0.0363125
5.0608e-02,0.0363906
5.0640e-02,0.0352734
5.0672e-02,0.0342188
5.0704e-02,0.0362031
5.0736e-02,0.0384766
5.0768e-02,0.0370547
5.0800e-02,0.0401953
5.0832e-02,0.0406016
5.0864e-02,0.0379844
5.0896e-02,0.0395156
5.0928e-02,0.0429297
5.0960e-02,0.0403359
5.0992e-02,0.0409297
5.1024e-02,0.0430781
5.1056e-02,0.0435547
5.1088e-02,0.04275
5.1120e-02,0.0449531
5.1152e-02,0.0489844
5.1184e-02,0.0470781
5.1216e-02,0.0475625
5.1248e-02,0.0502422
5.1280e-02,0.0505234
5.1312e-02,0.0538281
5.1344e-02,0.0552734
5.1376e-02,0.0589453
5.1408e-02,0.0594453
5.1440e-02,0.0597422
5.1472e-02,0.0631016
5.1504e-02,0.0658047
5.1536e-02,0.0715313
5.1568e-02,0.0766641
5.1600e-02,0.0808906
5.1632e-02,0.0914531
5.1664e-02,0.0926719
5.1696e-02,0.0977266
5.1728e-02,0.101141
5.1760e-02,0.103984
5.1792e-02,0.112508
5.1824e-02,0.111266
5.1856e-02,0.115242
5.1888e-02,0.115766
5.1920e-02,0.113484
5.1952e-02,0.113477
5.1984e-02,0.115086
5.2016e-02,0.113383
5.2048e-02,0.113063
5.2080e-02,0.104992
5.2112e-02,0.103445
5.2144e-02,0.0962031
5.2176e-02,0.0893125
5.2208e-02,0.0827734
5.2240e-02,0.0745078
5.2272e-02,0.0695391
5.2304e-02,0.0637109
5.2336e-02,0.0645469
5.2368e-02,0.0628359
5.2400e-02,0.0583203
5.2432e-02,0.0529063
5.2464e-02,0.0531719
5.2496e-02,0.0505078
5.2528e-02,0.0481719
5.2560e-02,0.0449609
5.2592e-02,0.0445
5.2624e-02,0.0422813
5.2656e-02,0.0430703
5.2688e-02,0.0442344
5.2720e-02,0.0432891
5.2752e-02,0.0444609
5.2784e-02,0.0429219
5.2816e-02,0.0429922
5.2848e-02,0.0447891
5.2880e-02,0.0446016
5.2912e-02,0.0413984
5.2944e-02,0.0437969
5.2976e-02,0.0469688
5.3008e-02,0.0466016
5.3040e-02,0.0460547
5.3072e-02,0.0430391
5.3104e-02,0.0437813
5.3136e-02,0.0431641
5.3168e-02,0.0417969
5.3200e-02,0.0423359
5.3232e-02,0.0444375
5.3264e-02,0.0492031
5.3296e-02,0.0475078
5.3328e-02,0.0482266
5.3360e-02,0.0483672
5.3392e-02,0.0520859
5.3424e-02,0.0517578
5.3456e-02,0.0527031
5.3488e-02,0.0551406
5.3520e-02,0.0560156
5.3552e-02,0.0586719
5.3584e-02,0.0630391
5.3616e-02,0.0645703
5.3648e-02,0.0681641
5.3680e-02,0.0706797
5.3712e-02,0.0741797
5.3744e-02,0.0725391
5.3776e-02,0.0743125
5.3808e-02,0.0805234
5.3840e-02,0.0875078
5.3872e-02,0.0930078
5.3904e-02,0.0958359
5.3936e-02,0.109445
5.3968e-02,0.122914
5.4000e-02,0.131391
5.4032e-02,0.136813
5.4064e-02,0.149875
5.4096e-02,0.161422
5.4128e-02,0.162141
5.4160e-02,0.170625
5.4192e-02,0.178109
5.4224e-02,0.177922
5.4256e-02,0.182008
5.4288e-02,0.187328
5.4320e-02,0.182672
5.4352e-02,0.179523
5.4384e-02,0.181039
5.4416e-02,0.172227
5.4448e-02,0.163695
5.4480e-02,0.152172
5.4512e-02,0.138094
5.4544e-02,0.131031
5.4576e-02,0.123594
5.4608e-02,0.112133
5.4640e-02,0.104688
5.4672e-02,0.0950625
5.4704e-02,0.0854688
5.4736e-02,0.0782031
5.4768e-02,0.0704766
5.4800e-02,0.0642734
5.4832e-02,0.0599688
5.4864e-02,0.0540313
5.4896e-02,0.0507813
5.4928e-02,0.0492344
5.4960e-02,0.0479141
5.4992e-02,0.0447734
5.5024e-02,0.0438047
5.5056e-02,0.0457656
5.5088e-02,0.0435313
5.5120e-02,0.0456328
5.5152e-02,0.0463516
5.5184e-02,0.0476406
5.5216e-02,0.0465547
5.5248e-02,0.0465547
5.5280e-02,0.0453672
5.5312e-02,0.0465859
5.5344e-02,0.0442734
5.5376e-02,0.0414375
5.5408e-02,0.0421641
5.5440e-02,0.0441641
5.5472e-02,0.0454375
5.5504e-02,0.0445078
5.5536e-02,0.04625
5.5568e-02,0.0482734
5.5600e-02,0.0496484
5.5632e-02,0.0506406
5.5664e-02,0.0479453
5.5696e-02,0.049125
5.5728e-02,0.0494922
5.5760e-02,0.0523984
5.5792e-02,0.0519219
5.5824e-02,0.0525859
5.5856e-02,0.0516563
5.5888e-02,0.0509609
5.5920e-02,0.0532969
5.5952e-02,0.0537422
5.5984e-02,0.0560156
5.6016e-02,0.0551094
5.6048e-02,0.0547422
5.6080e-02,0.0588984
5.6112e-02,0.0600313
5.6144e-02,0.0585547
5.6176e-02,0.059125
5.6208e-02,0.0639375
5.6240e-02,0.0654609
5.6272e-02,0.0698672
5.6304e-02,0.07325
5.6336e-02,0.07575
5.6368e-02,0.0822813
5.6400e-02,0.0870547
5.6432e-02,0.0911641
5.6464e-02,0.0929219
5.6496e-02,0.0954844
5.6528e-02,0.0999453
5.6560e-02,0.102781
5.6592e-02,0.104805
5.6624e-02,0.107719
5.6656e-02,0.104859
5.6688e-02,0.103758
5.6720e-02,0.104484
5.6752e-02,0.104563
5.6784e-02,0.10132
5.6816e-02,0.0943828
5.6848e-02,0.0908516
5.6880e-02,0.0865547
5.6912e-02,0.0840234
5.6944e-02,0.0796719
5.6976e-02,0.0771875
5.7008e-02,0.0750859
5.7040e-02,0.0671953
5.7072e-02,0.0599453
5.7104e-02,0.0555234
5.7136e-02,0.0539766
5.7168e-02,0.0536641
5.7200e-02,0.0525859
5.7232e-02,0.0533594
5.7264e-02,0.0503281
5.7296e-02,0.0484219
5.7328e-02,0.0469063
5.7360e-02,0.04625
5.7392e-02,0.0481641
5.7424e-02,0.0469844
5.7456e-02,0.0497109
5.7488e-02,0.0496641
5.7520e-02,0.0471328
5.7552e-02,0.0452031
5.7584e-02,0.0453516
5.7616e-02,0.0447422
5.7648e-02,0.0415391
5.7680e-02,0.0391797
5.7712e-02,0.0412266
5.7744e-02,0.0411953
5.7776e-02,0.0418828
5.7808e-02,0.0409766
5.7840e-02,0.0396406
5.7872e-02,0.0365938
5.7904e-02,0.0347031
5.7936e-02,0.0353672
5.7968e-02,0.0346328
5.8000e-02,0.0349297
5.8032e-02,0.0331953
5.8064e-02,0.0338828
5.8096e-02,0.0325156
5.8128e-02,0.0329922
5.8160e-02,0.0322109
5.8192e-02,0.0344531
5.8224e-02,0.0358906
5.8256e-02,0.0343594
5.8288e-02,0.0332969
5.8320e-02,0.0319688
5.8352e-02,0.0320859
5.8384e-02,0.0320547
5.8416e-02,0.0325625
5.8448e-02,0.0335938
5.8480e-02,0.0336875
5.8512e-02,0.0324063
5.8544e-02,0.0302813
5.8576e-02,0.0297656
5.8608e-02,0.0305859
5.8640e-02,0.0301719
5.8672e-02,0.0314609
5.8704e-02,0.031125
5.8736e-02,0.0307266
5.8768e-02,0.0334766
5.8800e-02,0.0345469
5.8832e-02,0.0320938
5.8864e-02,0.0295156
5.8896e-02,0.0318047
5.8928e-02,0.03175
5.8960e-02,0.0330781
5.8992e-02,0.0339609
5.9024e-02,0.0349453
5.9056e-02,0.0345234
5.9088e-02,0.0375859
5.9120e-02,0.0364609
5.9152e-02,0.0375391
5.9184e-02,0.0367813
5.9216e-02,0.0393203
5.9248e-02,0.0410469
5.9280e-02,0.0388516
5.9312e-02,0.0374141
5.9344e-02,0.0370313
5.9376e-02,0.0373984
5.9408e-02,0.0362266
5.9440e-02,0.0340859
5.9472e-02,0.0339844
5.9504e-02,0.0337188
5.9536e-02,0.0327734
5.9568e-02,0.0322109
5.9600e-02,0.0308359
5.9632e-02,0.0336484
5.9664e-02,0.0313359
5.9696e-02,0.0301641
5.9728e-02,0.0297344
5.9760e-02,0.0322344
5.9792e-02,0.0308672
5.9824e-02,0.0305469
5.9856e-02,0.0304688
5.9888e-02,0.0309922
5.9920e-02,0.0279844
5.9952e-02,0.0296484
5.9984e-02,0.0299297
6.0016e-02,0.0281875
6.0048e-02,0.0301563
6.0080e-02,0.0320547
6.0112e-02,0.0316875
6.0144e-02,0.0311641
6.0176e-02,0.0311641
6.0208e-02,0.0305781
6.0240e-02,0.0290781
6.0272e-02,0.0304297
6.0304e-02,0.0317266
6.0336e-02,0.0340234
6.0368e-02,0.0329922
6.0400e-02,0.0333672
6.0432e-02,0.0338281
6.0464e-02,0.0344141
6.0496e-02,0.0358047
6.0528e-02,0.0384688
6.0560e-02,0.0378125
6.0592e-02,0.0395938
6.0624e-02,0.0393359
6.0656e-02,0.0405859
6.0688e-02,0.0416797
6.0720e-02,0.0453594
6.0752e-02,0.0430781
6.0784e-02,0.0432344
6.0816e-02,0.0443594
6.0848e-02,0.0445391
6.0880e-02,0.0433906
6.0912e-02,0.0478828
6.0944e-02,0.0483438
6.0976e-02,0.0500469
6.1008e-02,0.0517813
6.1040e-02,0.0497813
6.1072e-02,0.0481641
6.1104e-02,0.0516875
6.1136e-02,0.0551797
6.1168e-02,0.0609844
6.1200e-02,0.0623828
6.1232e-02,0.0639688
6.1264e-02,0.0645234
6.1296e-02,0.0696719
6.1328e-02,0.0713047
6.1360e-02,0.076
6.1392e-02,0.0801953
6.1424e-02,0.0841797
6.1456e-02,0.0858672
6.1488e-02,0.0971563
6.1520e-02,0.103086
6.1552e-02,0.104219
6.1584e-02,0.108523
6.1616e-02,0.106906
6.1648e-02,0.105516
6.1680e-02,0.111805
6.1712e-02,0.115039
6.1744e-02,0.113898
6.1776e-02,0.115063
6.1808e-02,0.112023
6.1840e-02,0.111102
6.1872e-02,0.105328
6.1904e-02,0.10557
6.1936e-02,0.100039
6.1968e-02,0.0918203
6.2000e-02,0.0865313
6.2032e-02,0.0816563
6.2064e-02,0.0790625
6.2096e-02,0.0781484
6.2128e-02,0.0735234
6.2160e-02,0.0675703
6.2192e-02,0.0642266
6.2224e-02,0.0602891
6.2256e-02,0.0584219
6.2288e-02,0.0542734
6.2320e-02,0.0515938
6.2352e-02,0.0485313
6.2384e-02,0.0474375
6.2416e-02,0.04775
6.2448e-02,0.0463047
6.2480e-02,0.0440469
6.2512e-02,0.0425703
6.2544e-02,0.0401016
6.2576e-02,0.0397891
6.2608e-02,0.0396484
6.2640e-02,0.0409063
6.2672e-02,0.0403906
6.2704e-02,0.0374844
6.2736e-02,0.037875
6.2768e-02,0.0365391
6.2800e-02,0.0365078
6.2832e-02,0.0355859
6.2864e-02,0.0365078
6.2896e-02,0.0366328
6.2928e-02,0.0348906
6.2960e-02,0.0374766
6.2992e-02,0.0375781
6.3024e-02,0.0389063
6.3056e-02,0.0423984
6.3088e-02,0.0450547
6.3120e-02,0.0481016
6.3152e-02,0.0502266
6.3184e-02,0.0497656
6.3216e-02,0.0527109
6.3248e-02,0.0560313
6.3280e-02,0.0582109
6.3312e-02,0.0602109
6.3344e-02,0.0635
6.3376e-02,0.0672422
6.3408e-02,0.0721484
6.3440e-02,0.0729766
6.3472e-02,0.0770391
6.3504e-02,0.0851875
6.3536e-02,0.0822109
6.3568e-02,0.0827969
6.3600e-02,0.0897266
6.3632e-02,0.0955469
6.3664e-02,0.104313
6.3696e-02,0.109914
6.3728e-02,0.115406
6.3760e-02,0.12057
6.3792e-02,0.127367
6.3824e-02,0.135086
6.3856e-02,0.139742
6.3888e-02,0.149281
6.3920e-02,0.159844
6.3952e-02,0.164734
6.3984e-02,0.167109
6.4016e-02,0.168641
6.4048e-02,0.172188
6.4080e-02,0.178063
6.4112e-02,0.184648
6.4144e-02,0.190469
6.4176e-02,0.190438
6.4208e-02,0.181961
6.4240e-02,0.180406
6.4272e-02,0.178961
6.4304e-02,0.177594
6.4336e-02,0.166234
6.4368e-02,0.158648
6.4400e-02,0.155625
6.4432e-02,0.148773
6.4464e-02,0.143391
6.4496e-02,0.135188
6.4528e-02,0.128656
6.4560e-02,0.120148
6.4592e-02,0.109531
6.4624e-02,0.101516
6.4656e-02,0.0938828
6.4688e-02,0.087375
6.4720e-02,0.0809688
6.4752e-02,0.0751484
6.4784e-02,0.0738906
6.4816e-02,0.0676406
6.4848e-02,0.0644766
6.4880e-02,0.0605859
6.4912e-02,0.0596328
6.4944e-02,0.0565078
6.4976e-02,0.0563203
6.5008e-02,0.0554688
6.5040e-02,0.0514297
6.5072e-02,0.0511484
6.5104e-02,0.0502734
6.5136e-02,0.0470938
6.5168e-02,0.0476953
6.5200e-02,0.0463828
6.5232e-02,0.0457813
6.5264e-02,0.0470078
6.5296e-02,0.0483672
6.5328e-02,0.0464609
6.5360e-02,0.0460703
6.5392e-02,0.0451641
6.5424e-02,0.0430391
6.5456e-02,0.0438359
6.5488e-02,0.04425
6.5520e-02,0.0467656
6.5552e-02,0.0470313
6.5584e-02,0.0471875
6.5616e-02,0.0472969
6.5648e-02,0.0483516
6.5680e-02,0.0510625
6.5712e-02,0.050625
6.5744e-02,0.0524766
6.5776e-02,0.0514922
6.5808e-02,0.0501484
6.5840e-02,0.0510078
6.5872e-02,0.0503906
6.5904e-02,0.0490859
6.5936e-02,0.0520781
6.5968e-02,0.0526016
6.6000e-02,0.0564063
6.6032e-02,0.0585859
6.6064e-02,0.0649141
6.6096e-02,0.0680547
6.6128e-02,0.072125
6.6160e-02,0.0716016
6.6192e-02,0.0714688
6.6224e-02,0.0740703
6.6256e-02,0.0807266
6.6288e-02,0.0812734
6.6320e-02,0.0847266
6.6352e-02,0.0883516
6.6384e-02,0.0931563
6.6416e-02,0.092625
6.6448e-02,0.0969297
6.6480e-02,0.0973984
6.6512e-02,0.1095
6.6544e-02,0.110961
6.6576e-02,0.111344
6.6608e-02,0.111461
6.6640e-02,0.107805
6.6672e-02,0.10832
6.6704e-02,0.107398
6.6736e-02,0.102555
6.6768e-02,0.0955781
6.6800e-02,0.0907109
6.6832e-02,0.0862578
6.6864e-02,0.0811641
6.6896e-02,0.0772813
6.6928e-02,0.0711328
6.6960e-02,0.0743516
6.6992e-02,0.0718984
6.7024e-02,0.0670859
6.7056e-02,0.0619766
6.7088e-02,0.0622266
6.7120e-02,0.0603594
6.7152e-02,0.0570313
6.7184e-02,0.0558125
6.7216e-02,0.0555234
6.7248e-02,0.0530859
6.7280e-02,0.0520547
6.7312e-02,0.0504375
6.7344e-02,0.0513281
6.7376e-02,0.0530938
6.7408e-02,0.0497734
6.7440e-02,0.0492891
6.7472e-02,0.0531641
6.7504e-02,0.0548438
6.7536e-02,0.0541719
6.7568e-02,0.0535938
6.7600e-02,0.0540391
6.7632e-02,0.0527109
6.7664e-02,0.0518594
6.7696e-02,0.0495234
6.7728e-02,0.0516016
6.7760e-02,0.0489375
6.7792e-02,0.0496719
6.7824e-02,0.0490938
6.7856e-02,0.0473359
6.7888e-02,0.0453516
6.7920e-02,0.0429219
6.7952e-02,0.0442734
6.7984e-02,0.0410547
6.8016e-02,0.0394922
6.8048e-02,0.038125
6.8080e-02,0.0370938
6.8112e-02,0.0372734
6.8144e-02,0.0352109
6.8176e-02,0.0346875
6.8208e-02,0.0329297
6.8240e-02,0.0329531
6.8272e-02,0.0332422
6.8304e-02,0.0322891
6.8336e-02,0.0328203
6.8368e-02,0.0316875
6.8400e-02,0.032875
6.8432e-02,0.032125
6.8464e-02,0.0331484
6.8496e-02,0.0339531
6.8528e-02,0.0325313
6.8560e-02,0.0336953
6.8592e-02,0.0349063
6.8624e-02,0.0364609
6.8656e-02,0.0332422
6.8688e-02,0.0330938
6.8720e-02,0.0311563
6.8752e-02,0.0313828
6.8784e-02,0.0349063
6.8816e-02,0.0327266
6.8848e-02,0.0336641
6.8880e-02,0.0348984
6.8912e-02,0.0335469
6.8944e-02,0.0318359
6.8976e-02,0.0347422
6.9008e-02,0.0353125
6.9040e-02,0.0359531
6.9072e-02,0.0337422
6.9104e-02,0.0348906
6.9136e-02,0.0368359
6.9168e-02,0.0357969
6.9200e-02,0.0347266
6.9232e-02,0.0367188
6.9264e-02,0.0361328
6.9296e-02,0.0354844
6.9328e-02,0.0350234
6.9360e-02,0.0377969
6.9392e-02,0.0375078
6.9424e-02,0.0404141
6.9456e-02,0.0392656
6.9488e-02,0.0397188
6.9520e-02,0.0423906
6.9552e-02,0.0446641
6.9584e-02,0.0457969
6.9616e-02,0.0448281
6.9648e-02,0.0440313
6.9680e-02,0.0434688
6.9712e-02,0.0445781
6.9744e-02,0.0488984
6.9776e-02,0.0504531
6.9808e-02,0.0511719
6.9840e-02,0.0555234
6.9872e-02,0.0527344
6.9904e-02,0.0593594
6.9936e-02,0.0607813
6.9968e-02,0.0635781
7.0000e-02,0.0667422
7.0032e-02,0.0663984
7.0064e-02,0.0706406
7.0096e-02,0.0745703
7.0128e-02,0.0828203
7.0160e-02,0.088625
7.0192e-02,0.0955938
7.0224e-02,0.0999609
7.0256e-02,0.103656
7.0288e-02,0.104047
7.0320e-02,0.105859
7.0352e-02,0.105641
7.0384e-02,0.105883
7.0416e-02,0.107359
7.0448e-02,0.106773
7.0480e-02,0.104758
7.0512e-02,0.101789
7.0544e-02,0.101336
7.0576e-02,0.0949063
7.0608e-02,0.0913672
7.0640e-02,0.0877031
7.0672e-02,0.0848125
7.0704e-02,0.0821719
7.0736e-02,0.0761016
7.0768e-02,0.0711172
7.0800e-02,0.0696797
7.0832e-02,0.0653047
7.0864e-02,0.0640313
7.0896e-02,0.0586953
7.0928e-02,0.0533438
7.0960e-02,0.0497578
7.0992e-02,0.0482969
7.1024e-02,0.0467813
7.1056e-02,0.0437891
7.1088e-02,0.0448984
7.1120e-02,0.046
7.1152e-02,0.0443516
7.1184e-02,0.0436172
7.1216e-02,0.0448359
7.1248e-02,0.0427422
7.1280e-02,0.0417266
7.1312e-02,0.0410156
7.1344e-02,0.0407031
7.1376e-02,0.0436094
7.1408e-02,0.0435313
7.1440e-02,0.042375
7.1472e-02,0.0429063
7.1504e-02,0.0409609
7.1536e-02,0.0403047
7.1568e-02,0.0425781
7.1600e-02,0.0427891
7.1632e-02,0.0438438
7.1664e-02,0.04775
7.1696e-02,0.0479375
7.1728e-02,0.0487578
7.1760e-02,0.0498594
7.1792e-02,0.0512969
7.1824e-02,0.0526719
7.1856e-02,0.0547656
7.1888e-02,0.0542656
7.1920e-02,0.0523672
7.1952e-02,0.0585156
7.1984e-02,0.0622969
7.2016e-02,0.0611797
7.2048e-02,0.0627031
7.2080e-02,0.0668828
7.2112e-02,0.0684766
7.2144e-02,0.0743984
7.2176e-02,0.079375
7.2208e-02,0.0848359
7.2240e-02,0.0905547
7.2272e-02,0.100406
7.2304e-02,0.108984
7.2336e-02,0.11875
7.2368e-02,0.126711
7.2400e-02,0.140797
7.2432e-02,0.149969
7.2464e-02,0.152258
7.2496e-02,0.162234
7.2528e-02,0.173477
7.2560e-02,0.175289
7.2592e-02,0.176016
7.2624e-02,0.173383
7.2656e-02,0.173445
7.2688e-02,0.169656
7.2720e-02,0.167383
7.2752e-02,0.162141
7.2784e-02,0.152633
7.2816e-02,0.141656
7.2848e-02,0.13707
7.2880e-02,0.131891
7.2912e-02,0.12243
7.2944e-02,0.11082
7.2976e-02,0.0963359
7.3008e-02,0.0865547
7.3040e-02,0.0809141
7.3072e-02,0.0711016
7.3104e-02,0.0686172
7.3136e-02,0.0624531
7.3168e-02,0.0600391
7.3200e-02,0.0554844
7.3232e-02,0.0519609
7.3264e-02,0.0498203
7.3296e-02,0.0481797
7.3328e-02,0.0479453
7.3360e-02,0.0467813
7.3392e-02,0.0435313
7.3424e-02,0.0439219
7.3456e-02,0.0456953
7.3488e-02,0.0466328
7.3520e-02,0.0480078
7.3552e-02,0.0463828
7.3584e-02,0.0446172
7.3616e-02,0.0432188
7.3648e-02,0.0413047
7.3680e-02,0.0417188
7.3712e-02,0.0452031
7.3744e-02,0.0454297
7.3776e-02,0.0438516
7.3808e-02,0.0464297
7.3840e-02,0.0470938
7.3872e-02,0.0463828
7.3904e-02,0.0460938
7.3936e-02,0.0469609
7.3968e-02,0.0497813
7.4000e-02,0.0511094
7.4032e-02,0.0515078
7.4064e-02,0.0535547
7.4096e-02,0.0526641
7.4128e-02,0.0488047
7.4160e-02,0.0494922
7.4192e-02,0.0528281
7.4224e-02,0.0531406
7.4256e-02,0.054375
7.4288e-02,0.0534531
7.4320e-02,0.058375
7.4352e-02,0.0591172
7.4384e-02,0.0579219
7.4416e-02,0.060625
7.4448e-02,0.0643984
7.4480e-02,0.0721875
7.4512e-02,0.0798125
7.4544e-02,0.082375
7.4576e-02,0.0855391
7.4608e-02,0.0875703
7.4640e-02,0.0904453
7.4672e-02,0.0970938
7.4704e-02,0.100578
7.4736e-02,0.101844
7.4768e-02,0.103453
7.4800e-02,0.10782
7.4832e-02,0.108648
7.4864e-02,0.104797
7.4896e-02,0.104305
7.4928e-02,0.0973125
7.4960e-02,0.0946797
7.4992e-02,0.0947813
7.5024e-02,0.0908203
7.5056e-02,0.0856875
7.5088e-02,0.0806875
7.5120e-02,0.0778047
7.5152e-02,0.0779219
7.5184e-02,0.0737891
7.5216e-02,0.0684297
7.5248e-02,0.0643281
7.5280e-02,0.0591172
7.5312e-02,0.0571719
7.5344e-02,0.0540625
7.5376e-02,0.0521016
7.5408e-02,0.0514375
7.5440e-02,0.0499063
7.5472e-02,0.0498047
7.5504e-02,0.0491484
7.5536e-02,0.0455469
7.5568e-02,0.0452969
7.5600e-02,0.045
7.5632e-02,0.0419922
7.5664e-02,0.04325
7.5696e-02,0.0447188
7.5728e-02,0.0454844
7.5760e-02,0.044375
7.5792e-02,0.0431172
7.5824e-02,0.0435
7.5856e-02,0.0405703
7.5888e-02,0.0385547
7.5920e-02,0.0368672
7.5952e-02,0.0362031
7.5984e-02,0.0388906
7.6016e-02,0.0379531
7.6048e-02,0.0340313
7.6080e-02,0.0338516
7.6112e-02,0.0341328
7.6144e-02,0.0305547
7.6176e-02,0.0305703
7.6208e-02,0.0316719
7.6240e-02,0.0306563
7.6272e-02,0.0297969
7.6304e-02,0.0281484
7.6336e-02,0.0279844
7.6368e-02,0.030875
7.6400e-02,0.0313438
7.6432e-02,0.0316172
7.6464e-02,0.0302734
7.6496e-02,0.0300313
7.6528e-02,0.0291094
7.6560e-02,0.0318906
7.6592e-02,0.0307969
7.6624e-02,0.0317578
7.6656e-02,0.0324844
7.6688e-02,0.0326953
7.6720e-02,0.0323516
7.6752e-02,0.0315313
7.6784e-02,0.0315
7.6816e-02,0.0314375
7.6848e-02,0.0331016
7.6880e-02,0.0315391
7.6912e-02,0.0333516
7.6944e-02,0.0326172
7.6976e-02,0.0337188
7.7008e-02,0.0338047
7.7040e-02,0.0364063
7.7072e-02,0.0360156
7.7104e-02,0.0367578
7.7136e-02,0.035
7.7168e-02,0.0349063
7.7200e-02,0.0356016
7.7232e-02,0.0369922
7.7264e-02,0.0378984
7.7296e-02,0.0382891
7.7328e-02,0.03825
7.7360e-02,0.0351172
7.7392e-02,0.0356641
7.7424e-02,0.0350391
7.7456e-02,0.0323203
7.7488e-02,0.0324844
7.7520e-02,0.0324844
7.7552e-02,0.0347344
7.7584e-02,0.032625
7.7616e-02,0.0327344
7.7648e-02,0.0335156
7.7680e-02,0.0325703
7.7712e-02,0.0337422
7.7744e-02,0.0334531
7.7776e-02,0.0324531
7.7808e-02,0.0322891
7.7840e-02,0.0322266
7.7872e-02,0.0328125
7.7904e-02,0.0329609
7.7936e-02,0.0307344
7.7968e-02,0.0315859
7.8000e-02,0.0302422
7.8032e-02,0.0300234
7.8064e-02,0.0306641
7.8096e-02,0.0336719
7.8128e-02,0.0338047
7.8160e-02,0.0349219
7.8192e-02,0.0351719
7.8224e-02,0.0344688
7.8256e-02,0.0340391
7.8288e-02,0.0332031
7.8320e-02,0.0373438
7.8352e-02,0.0377891
7.8384e-02,0.0371563
7.8416e-02,0.0383672
7.8448e-02,0.0390703
7.8480e-02,0.0408594
7.8512e-02,0.0394844
7.8544e-02,0.0409844
7.8576e-02,0.0447656
7.8608e-02,0.0459766
7.8640e-02,0.0448906
7.8672e-02,0.0453594
7.8704e-02,0.0443828
7.8736e-02,0.045
7.8768e-02,0.0444609
7.8800e-02,0.0469766
7.8832e-02,0.0502344
7.8864e-02,0.0530469
7.8896e-02,0.0542422
7.8928e-02,0.0562891
7.8960e-02,0.0550234
7.8992e-02,0.06
7.9024e-02,0.0630781
7.9056e-02,0.0637578
7.9088e-02,0.0646641
7.9120e-02,0.06675
7.9152e-02,0.0705313
7.9184e-02,0.0788984
7.9216e-02,0.0879531
7.9248e-02,0.0931641
7.9280e-02,0.100734
7.9312e-02,0.101313
7.9344e-02,0.10032
7.9376e-02,0.103141
7.9408e-02,0.108313
7.9440e-02,0.10825
7.9472e-02,0.108234
7.9504e-02,0.111977
7.9536e-02,0.109789
7.9568e-02,0.110773
7.9600e-02,0.112906
7.9632e-02,0.108703
7.9664e-02,0.104875
7.9696e-02,0.104953
7.9728e-02,0.10032
7.9760e-02,0.0965078
7.9792e-02,0.0916953
7.9824e-02,0.0909766
7.9856e-02,0.0805859
7.9888e-02,0.0761484
7.9920e-02,0.0726406
7.9952e-02,0.0680938
7.9984e-02,0.0637891
8.0016e-02,0.0606016
8.0048e-02,0.0565391
8.0080e-02,0.0527109
8.0112e-02,0.0531875
8.0144e-02,0.0538906
8.0176e-02,0.0508203
8.0208e-02,0.0488125
8.0240e-02,0.0468672
8.0272e-02,0.0448438
8.0304e-02,0.0446875
8.0336e-02,0.0427813
8.0368e-02,0.0413438
8.0400e-02,0.0381953
8.0432e-02,0.0389922
8.0464e-02,0.0396172
8.0496e-02,0.0381953
8.0528e-02,0.0391406
8.0560e-02,0.0395703
8.0592e-02,0.0387188
8.0624e-02,0.0402734
8.0656e-02,0.0416719
8.0688e-02,0.0428281
8.0720e-02,0.0414766
8.0752e-02,0.0416172
8.0784e-02,0.0416953
8.0816e-02,0.0450625
8.0848e-02,0.0457734
8.0880e-02,0.0473203
8.0912e-02,0.0504609
8.0944e-02,0.0541641
8.0976e-02,0.0569844
8.1008e-02,0.057375
8.1040e-02,0.0584688
8.1072e-02,0.0601563
8.1104e-02,0.0626172
8.1136e-02,0.0651016
8.1168e-02,0.0676719
8.1200e-02,0.0744375
8.1232e-02,0.0765234
8.1264e-02,0.0843125
8.1296e-02,0.0922656
8.1328e-02,0.0960156
8.1360e-02,0.0996719
8.1392e-02,0.105828
8.1424e-02,0.110094
8.1456e-02,0.112781
8.1488e-02,0.123336
8.1520e-02,0.13043
8.1552e-02,0.137953
8.1584e-02,0.140914
8.1616e-02,0.147898
8.1648e-02,0.156359
8.1680e-02,0.15975
8.1712e-02,0.162859
8.1744e-02,0.167008
8.1776e-02,0.17307
8.1808e-02,0.178008
8.1840e-02,0.171891
8.1872e-02,0.168539
8.1904e-02,0.170211
8.1936e-02,0.169836
8.1968e-02,0.167758
8.2000e-02,0.162172
8.2032e-02,0.161734
8.2064e-02,0.152695
8.2096e-02,0.147328
8.2128e-02,0.141945
8.2160e-02,0.135078
8.2192e-02,0.130703
8.2224e-02,0.125898
8.2256e-02,0.120781
8.2288e-02,0.112688
8.2320e-02,0.101945
8.2352e-02,0.0927109
8.2384e-02,0.0878203
8.2416e-02,0.0837656
8.2448e-02,0.0779453
8.2480e-02,0.0736563
8.2512e-02,0.0687188
8.2544e-02,0.0660625
8.2576e-02,0.0607734
8.2608e-02,0.0638906
8.2640e-02,0.0621172
8.2672e-02,0.0579531
8.2704e-02,0.0523203
8.2736e-02,0.0502266
8.2768e-02,0.0507266
8.2800e-02,0.0479922
8.2832e-02,0.0480547
8.2864e-02,0.0474844
8.2896e-02,0.0472578
8.2928e-02,0.0452734
8.2960e-02,0.0475
8.2992e-02,0.0467344
8.3024e-02,0.0432969
8.3056e-02,0.0444531
8.3088e-02,0.0437969
8.3120e-02,0.0438672
8.3152e-02,0.0452578
8.3184e-02,0.0444531
8.3216e-02,0.0445469
8.3248e-02,0.0447188
8.3280e-02,0.0462031
8.3312e-02,0.0493125
8.3344e-02,0.0497344
8.3376e-02,0.0519141
8.3408e-02,0.051375
8.3440e-02,0.0494844
8.3472e-02,0.0498984
8.3504e-02,0.0552969
8.3536e-02,0.0563984
8.3568e-02,0.0603516
8.3600e-02,0.0605703
8.3632e-02,0.0610703
8.3664e-02,0.0660625
8.3696e-02,0.0699922
8.3728e-02,0.0683516
8.3760e-02,0.0698359
8.3792e-02,0.0749453
8.3824e-02,0.0803906
8.3856e-02,0.08025
8.3888e-02,0.0894922
8.3920e-02,0.0929063
8.3952e-02,0.0933047
8.3984e-02,0.0970547
8.4016e-02,0.0983906
8.4048e-02,0.101156
8.4080e-02,0.100438
8.4112e-02,0.101328
8.4144e-02,0.101992
8.4176e-02,0.103383
8.4208e-02,0.102008
8.4240e-02,0.101164
8.4272e-02,0.100906
8.4304e-02,0.101234
8.4336e-02,0.0976797
8.4368e-02,0.0931953
8.4400e-02,0.0893359
8.4432e-02,0.0854531
8.4464e-02,0.0795313
8.4496e-02,0.0727891
8.4528e-02,0.0727734
8.4560e-02,0.0655313
8.4592e-02,0.0626953
8.4624e-02,0.0607266
8.4656e-02,0.0587734
8.4688e-02,0.0584297
8.4720e-02,0.0569219
8.4752e-02,0.0576875
8.4784e-02,0.0592813
8.4816e-02,0.056125
8.4848e-02,0.0509609
8.4880e-02,0.0505234
8.4912e-02,0.0482734
8.4944e-02,0.0471719
8.4976e-02,0.0483672
8.5008e-02,0.0500156
8.5040e-02,0.0480156
8.5072e-02,0.0496641
8.5104e-02,0.048375
8.5136e-02,0.0489688
8.5168e-02,0.0489375
8.5200e-02,0.0461328
8.5232e-02,0.045625
8.5264e-02,0.0449844
8.5296e-02,0.0471328
8.5328e-02,0.0465
8.5360e-02,0.0439922
8.5392e-02,0.0451563
8.5424e-02,0.0438125
8.5456e-02,0.0449063
8.5488e-02,0.0410234
8.5520e-02,0.0392734
8.5552e-02,0.039
8.5584e-02,0.0370859
8.5616e-02,0.0375469
8.5648e-02,0.036875
8.5680e-02,0.0367188
8.5712e-02,0.0383125
8.5744e-02,0.0394453
8.5776e-02,0.0400313
8.5808e-02,0.0379844
8.5840e-02,0.0357109
8.5872e-02,0.0353438
8.5904e-02,0.0349453
8.5936e-02,0.0333984
8.5968e-02,0.0320469
8.6000e-02,0.0301875
8.6032e-02,0.0305078
8.6064e-02,0.0302578
8.6096e-02,0.0303203
8.6128e-02,0.0305234
8.6160e-02,0.0313672
8.6192e-02,0.0342734
8.6224e-02,0.0350547
8.6256e-02,0.0359375
8.6288e-02,0.0362422
8.6320e-02,0.0329063
8.6352e-02,0.0307656
8.6384e-02,0.0316406
8.6416e-02,0.0330625
8.6448e-02,0.0327188
8.6480e-02,0.0322266
8.6512e-02,0.0334375
8.6544e-02,0.0346797
8.6576e-02,0.0336719
8.6608e-02,0.0342734
8.6640e-02,0.0355
8.6672e-02,0.0344141
8.6704e-02,0.0363125
8.6736e-02,0.0363203
8.6768e-02,0.0345313
8.6800e-02,0.0369219
8.6832e-02,0.0396719
8.6864e-02,0.0397656
8.6896e-02,0.0373125
8.6928e-02,0.0415313
8.6960e-02,0.0400391
8.6992e-02,0.0405234
8.7024e-02,0.041875
8.7056e-02,0.0423047
8.7088e-02,0.0431016
8.7120e-02,0.0422188
8.7152e-02,0.0421719
8.7184e-02,0.0447734
8.7216e-02,0.0439766
8.7248e-02,0.0438281
8.7280e-02,0.050125
8.7312e-02,0.0538281
8.7344e-02,0.0565547
8.7376e-02,0.0546094
8.7408e-02,0.0612656
8.7440e-02,0.0629141
8.7472e-02,0.0674531
8.7504e-02,0.0687891
8.7536e-02,0.0712969
8.7568e-02,0.0799531
8.7600e-02,0.0837109
8.7632e-02,0.0866016
8.7664e-02,0.0915781
8.7696e-02,0.0975391
8.7728e-02,0.0976484
8.7760e-02,0.09725
8.7792e-02,0.0973594
8.7824e-02,0.0985078
8.7856e-02,0.0979609
8.7888e-02,0.101813
8.7920e-02,0.102141
8.7952e-02,0.0996406
8.7984e-02,0.0996641
8.8016e-02,0.0988516
8.8048e-02,0.0940156
8.8080e-02,0.0910234
8.8112e-02,0.0871094
8.8144e-02,0.0843828
8.8176e-02,0.0807109
8.8208e-02,0.0775625
8.8240e-02,0.0726406
8.8272e-02,0.0666563
8.8304e-02,0.0619688
8.8336e-02,0.0617969
8.8368e-02,0.0564609
8.8400e-02,0.0547813
8.8432e-02,0.0522266
8.8464e-02,0.0496328
8.8496e-02,0.0479375
8.8528e-02,0.0476094
8.8560e-02,0.0476328
8.8592e-02,0.0465234
8.8624e-02,0.0440391
8.8656e-02,0.043375
8.8688e-02,0.0448828
8.8720e-02,0.0438125
8.8752e-02,0.0419531
8.8784e-02,0.0410703
8.8816e-02,0.0427422
8.8848e-02,0.0447891
8.8880e-02,0.0455156
8.8912e-02,0.0465625
8.8944e-02,0.04775
8.8976e-02,0.0462109
8.9008e-02,0.0479531
8.9040e-02,0.0459922
8.9072e-02,0.0493281
8.9104e-02,0.0480547
8.9136e-02,0.0486484
8.9168e-02,0.0473203
8.9200e-02,0.0501094
8.9232e-02,0.0529766
8.9264e-02,0.0540078
8.9296e-02,0.055
8.9328e-02,0.0552266
8.9360e-02,0.0558281
8.9392e-02,0.0589375
8.9424e-02,0.0618125
8.9456e-02,0.0686875
8.9488e-02,0.0725938
8.9520e-02,0.0806328
8.9552e-02,0.0838516
8.9584e-02,0.0864453
8.9616e-02,0.0921094
8.9648e-02,0.10532
8.9680e-02,0.113352
8.9712e-02,0.117664
8.9744e-02,0.124125
8.9776e-02,0.133438
8.9808e-02,0.138766
8.9840e-02,0.146398
8.9872e-02,0.152727
8.9904e-02,0.155633
8.9936e-02,0.163023
8.9968e-02,0.160766
9.0000e-02,0.157633
9.0032e-02,0.160789
9.0064e-02,0.155344
9.0096e-02,0.153734
9.0128e-02,0.145508
9.0160e-02,0.138734
9.0192e-02,0.134055
9.0224e-02,0.12743
9.0256e-02,0.119836
9.0288e-02,0.113609
9.0320e-02,0.10807
9.0352e-02,0.0969141
9.0384e-02,0.0911719
9.0416e-02,0.0877031
9.0448e-02,0.0803828
9.0480e-02,0.0705547
9.0512e-02,0.0659453
9.0544e-02,0.0628203
9.0576e-02,0.0590078
9.0608e-02,0.05475
9.0640e-02,0.0510625
9.0672e-02,0.046875
9.0704e-02,0.0460234
9.0736e-02,0.04475
9.0768e-02,0.0438984
9.0800e-02,0.0444453
9.0832e-02,0.0426172
9.0864e-02,0.0450781
9.0896e-02,0.0442656
9.0928e-02,0.0438594
9.0960e-02,0.0461172
9.0992e-02,0.0453438
9.1024e-02,0.0467188
9.1056e-02,0.0459375
9.1088e-02,0.0454141
9.1120e-02,0.0459531
9.1152e-02,0.0431328
9.1184e-02,0.0441172
9.1216e-02,0.0457813
9.1248e-02,0.0477188
9.1280e-02,0.0499297
9.1312e-02,0.0512969
9.1344e-02,0.0487813
9.1376e-02,0.049375
9.1408e-02,0.0504375
9.1440e-02,0.0517969
9.1472e-02,0.0524063
9.1504e-02,0.0550313
9.1536e-02,0.0572891
9.1568e-02,0.0585156
9.1600e-02,0.0578047
9.1632e-02,0.0578906
9.1664e-02,0.0610781
9.1696e-02,0.0648672
9.1728e-02,0.0658047
9.1760e-02,0.0699063
9.1792e-02,0.0769688
9.1824e-02,0.0795938
9.1856e-02,0.0807813
9.1888e-02,0.0847734
9.1920e-02,0.0888594
9.1952e-02,0.0909453
9.1984e-02,0.0893906
9.2016e-02,0.0901953
9.2048e-02,0.0961172
9.2080e-02,0.0968984
9.2112e-02,0.0964063
9.2144e-02,0.0970391
9.2176e-02,0.0952578
9.2208e-02,0.0928047
9.2240e-02,0.0898516
9.2272e-02,0.0865078
9.2304e-02,0.0825234
9.2336e-02,0.0811484
9.2368e-02,0.0783594
9.2400e-02,0.0779531
9.2432e-02,0.0778984
9.2464e-02,0.07275
9.2496e-02,0.0673516
9.2528e-02,0.0652109
9.2560e-02,0.0627656
9.2592e-02,0.0582656
9.2624e-02,0.0571641
9.2656e-02,0.0526563
9.2688e-02,0.0525469
9.2720e-02,0.0493359
9.2752e-02,0.0484688
9.2784e-02,0.0448828
9.2816e-02,0.0427109
9.2848e-02,0.0423125
9.2880e-02,0.0420469
9.2912e-02,0.0413594
9.2944e-02,0.0416016
9.2976e-02,0.0395234
9.3008e-02,0.0377266
9.3040e-02,0.0390625
9.3072e-02,0.0400078
9.3104e-02,0.0388906
9.3136e-02,0.0394453
9.3168e-02,0.0420625
9.3200e-02,0.0399922
9.3232e-02,0.0372969
9.3264e-02,0.0363906
9.3296e-02,0.037625
9.3328e-02,0.0344219
9.3360e-02,0.0326953
9.3392e-02,0.0310547
9.3424e-02,0.0288438
9.3456e-02,0.0298672
9.3488e-02,0.0315703
9.3520e-02,0.0346641
9.3552e-02,0.0328438
9.3584e-02,0.0299141
9.3616e-02,0.0302266
9.3648e-02,0.0303125
9.3680e-02,0.0314375
9.3712e-02,0.0297188
9.3744e-02,0.0309609
9.3776e-02,0.0324219
9.3808e-02,0.0308828
9.3840e-02,0.0335078
9.3872e-02,0.0308047
9.3904e-02,0.0296172
9.3936e-02,0.0321484
9.3968e-02,0.0343281
9.4000e-02,0.0338594
9.4032e-02,0.034625
9.4064e-02,0.0350781
9.4096e-02,0.0352578
9.4128e-02,0.0349297
9.4160e-02,0.034
9.4192e-02,0.0336953
9.4224e-02,0.0338125
9.4256e-02,0.0330703
9.4288e-02,0.0331719
9.4320e-02,0.0315313
9.4352e-02,0.0379688
9.4384e-02,0.0373281
9.4416e-02,0.0344922
9.4448e-02,0.0328281
9.4480e-02,0.0324219
9.4512e-02,0.0329922
9.4544e-02,0.0320859
9.4576e-02,0.0328828
9.4608e-02,0.0337734
9.4640e-02,0.0353125
9.4672e-02,0.0374609
9.4704e-02,0.0385078
9.4736e-02,0.0369609
9.4768e-02,0.0357266
9.4800e-02,0.0339922
9.4832e-02,0.0341328
9.4864e-02,0.0324688
9.4896e-02,0.0315625
9.4928e-02,0.0321875
9.4960e-02,0.0358438
9.4992e-02,0.0366328
9.5024e-02,0.0358828
9.5056e-02,0.0334297
9.5088e-02,0.0346094
9.5120e-02,0.0331797
9.5152e-02,0.0344922
9.5184e-02,0.0335547
9.5216e-02,0.0344063
9.5248e-02,0.0346641
9.5280e-02,0.032375
9.5312e-02,0.0348672
9.5344e-02,0.0334063
9.5376e-02,0.0336094
9.5408e-02,0.0341484
9.5440e-02,0.0367344
9.5472e-02,0.0351406
9.5504e-02,0.0358516
9.5536e-02,0.0368281
9.5568e-02,0.0387969
9.5600e-02,0.0388281
9.5632e-02,0.038625
9.5664e-02,0.0399531
9.5696e-02,0.0416641
9.5728e-02,0.043375
9.5760e-02,0.0432266
9.5792e-02,0.0467422
9.5824e-02,0.0489141
9.5856e-02,0.0508828
9.5888e-02,0.0521953
9.5920e-02,0.0528203
9.5952e-02,0.0513438
9.5984e-02,0.0538438
9.6016e-02,0.0543281
9.6048e-02,0.0545781
9.6080e-02,0.0561953
9.6112e-02,0.0592969
9.6144e-02,0.0665234
9.6176e-02,0.0630938
9.6208e-02,0.0682266
9.6240e-02,0.0716172
9.6272e-02,0.0820469
9.6304e-02,0.0827813
9.6336e-02,0.0831016
9.6368e-02,0.0889297
9.6400e-02,0.0904453
9.6432e-02,0.0938359
9.6464e-02,0.0967422
9.6496e-02,0.0973047
9.6528e-02,0.0999063
9.6560e-02,0.10082
9.6592e-02,0.0975078
9.6624e-02,0.0989297
9.6656e-02,0.0971563
9.6688e-02,0.0976797
9.6720e-02,0.0987344
9.6752e-02,0.0987031
9.6784e-02,0.0963359
9.6816e-02,0.0959375
9.6848e-02,0.0896875
9.6880e-02,0.0864609
9.6912e-02,0.0840938
9.6944e-02,0.0799297
9.6976e-02,0.0787891
9.7008e-02,0.0766563
9.7040e-02,0.0735391
9.7072e-02,0.0691953
9.7104e-02,0.0664297
9.7136e-02,0.0642578
9.7168e-02,0.0584219
9.7200e-02,0.0554766
9.7232e-02,0.0510469
9.7264e-02,0.0480391
9.7296e-02,0.0448281
9.7328e-02,0.0442266
9.7360e-02,0.0447891
9.7392e-02,0.0477734
9.7424e-02,0.0471484
9.7456e-02,0.043375
9.7488e-02,0.0421094
9.7520e-02,0.0411797
9.7552e-02,0.0426719
9.7584e-02,0.0421563
9.7616e-02,0.041625
9.7648e-02,0.0427344
9.7680e-02,0.0430781
9.7712e-02,0.0412969
9.7744e-02,0.0434922
9.7776e-02,0.0468906
9.7808e-02,0.0436328
9.7840e-02,0.0424297
9.7872e-02,0.0438359
9.7904e-02,0.0453906
9.7936e-02,0.0458672
9.7968e-02,0.0477422
9.8000e-02,0.0486484
9.8032e-02,0.0512813
9.8064e-02,0.0554219
9.8096e-02,0.0566719
9.8128e-02,0.0617578
9.8160e-02,0.0638672
9.8192e-02,0.0716953
9.8224e-02,0.0736328
9.8256e-02,0.0776484
9.8288e-02,0.0810156
9.8320e-02,0.0884297
9.8352e-02,0.0892891
9.8384e-02,0.0916797
9.8416e-02,0.0989453
9.8448e-02,0.108719
9.8480e-02,0.112492
9.8512e-02,0.118883
9.8544e-02,0.125977
9.8576e-02,0.136188
9.8608e-02,0.143508
9.8640e-02,0.145156
9.8672e-02,0.149852
9.8704e-02,0.157102
9.8736e-02,0.159773
9.8768e-02,0.162273
9.8800e-02,0.165063
9.8832e-02,0.166156
9.8864e-02,0.169406
9.8896e-02,0.163641
9.8928e-02,0.160883
9.8960e-02,0.163773
9.8992e-02,0.160375
9.9024e-02,0.163055
9.9056e-02,0.154109
9.9088e-02,0.149438
9.9120e-02,0.146883
9.9152e-02,0.147266
9.9184e-02,0.135578
9.9216e-02,0.13068
9.9248e-02,0.123234
9.9280e-02,0.116297
9.9312e-02,0.109414
9.9344e-02,0.10482
9.9376e-02,0.0950859
9.9408e-02,0.0915234
9.9440e-02,0.0877813
9.9472e-02,0.0789531
9.9504e-02,0.0766016
9.9536e-02,0.0745547
9.9568e-02,0.0728203
9.9600e-02,0.06925
9.9632e-02,0.068
9.9664e-02,0.0631172
9.9696e-02,0.0600469
9.9728e-02,0.0564844
9.9760e-02,0.0543594
9.9792e-02,0.0525078
9.9824e-02,0.04875
9.9856e-02,0.0464766
9.9888e-02,0.0468125
9.9920e-02,0.0464375
9.9952e-02,0.0468672
9.9984e-02,0.0509766
1.0002e-01,0.0516719
1.0005e-01,0.0532578
1.0008e-01,0.0530703
1.0011e-01,0.0529063
1.0014e-01,0.0532734
1.0018e-01,0.0545859
1.0021e-01,0.0518672
1.0024e-01,0.0506016
1.0027e-01,0.0498516
1.0030e-01,0.0486875
1.0034e-01,0.0525313
1.0037e-01,0.0510625
1.0040e-01,0.0523984
1.0043e-01,0.0536406
1.0046e-01,0.0544688
1.0050e-01,0.0526172
1.0053e-01,0.0521953
1.0056e-01,0.0556641
1.0059e-01,0.0617891
1.0062e-01,0.0637656
1.0066e-01,0.0658203
1.0069e-01,0.0672422
1.0072e-01,0.0692969
1.0075e-01,0.0682266
1.0078e-01,0.0695234
1.0082e-01,0.0714844
1.0085e-01,0.0760703
1.0088e-01,0.0778594
1.0091e-01,0.0841016
1.0094e-01,0.0885391
1.0098e-01,0.090125
1.0101e-01,0.0923125
1.0104e-01,0.0912734
1.0107e-01,0.0934063
1.0110e-01,0.0958516
1.0114e-01,0.100484
1.0117e-01,0.0983438
1.0120e-01,0.0996641
1.0123e-01,0.0966719
1.0126e-01,0.0965078
1.0130e-01,0.0920313
1.0133e-01,0.0926797
1.0136e-01,0.0867266
1.0139e-01,0.0851641
1.0142e-01,0.0838672
1.0146e-01,0.0772031
1.0149e-01,0.0774844
1.0152e-01,0.0764219
1.0155e-01,0.0733438
1.0158e-01,0.0713828
1.0162e-01,0.0700625
1.0165e-01,0.0646953
1.0168e-01,0.0610625
1.0171e-01,0.0560469
1.0174e-01,0.0535
1.0178e-01,0.0525156
1.0181e-01,0.0504531
1.0184e-01,0.0496719
1.0187e-01,0.0495156
1.0190e-01,0.0484219
1.0194e-01,0.0475938
1.0197e-01,0.0468047
1.0200e-01,0.0475547
1.0203e-01,0.0464766
1.0206e-01,0.0489844
1.0210e-01,0.0479375
1.0213e-01,0.0493516
1.0216e-01,0.0494844
1.0219e-01,0.0514922
1.0222e-01,0.0496953
1.0226e-01,0.0474531
1.0229e-01,0.0452656
1.0232e-01,0.0456641
1.0235e-01,0.0443594
1.0238e-01,0.0435391
1.0242e-01,0.0426094
1.0245e-01,0.0408516
1.0248e-01,0.0437891
1.0251e-01,0.0429609
1.0254e-01,0.0414609
1.0258e-01,0.0405703
1.0261e-01,0.038875
1.0264e-01,0.034875
1.0267e-01,0.0354609
1.0270e-01,0.0372734
1.0274e-01,0.0338672
1.0277e-01,0.0330469
1.0280e-01,0.0350547
1.0283e-01,0.0346016
1.0286e-01,0.0346641
1.0290e-01,0.035375
1.0293e-01,0.0339688
1.0296e-01,0.0326016
1.0299e-01,0.0323047
1.0302e-01,0.0327656
1.0306e-01,0.0314063
1.0309e-01,0.0325625
1.0312e-01,0.0349531
1.0315e-01,0.0364688
1.0318e-01,0.0354141
1.0322e-01,0.0362891
1.0325e-01,0.0362344
1.0328e-01,0.0358906
1.0331e-01,0.0336094
1.0334e-01,0.0337734
1.0338e-01,0.0331875
1.0341e-01,0.0372734
1.0344e-01,0.0372656
1.0347e-01,0.03775
1.0350e-01,0.0350547
1.0354e-01,0.0344063
1.0357e-01,0.0349141
1.0360e-01,0.0349063
1.0363e-01,0.0345313
1.0366e-01,0.0365234
1.0370e-01,0.0364141
1.0373e-01,0.0364375
1.0376e-01,0.0348047
1.0379e-01,0.0337344
1.0382e-01,0.0358125
1.0386e-01,0.0350781
1.0389e-01,0.0375703
1.0392e-01,0.0388125
1.0395e-01,0.0392422
1.0398e-01,0.0404141
1.0402e-01,0.0393594
1.0405e-01,0.0388672
1.0408e-01,0.0383906
1.0411e-01,0.0384531
1.0414e-01,0.0424219
1.0418e-01,0.0431641
1.0421e-01,0.0439063
1.0424e-01,0.0482344
1.0427e-01,0.0491563
1.0430e-01,0.0480625
1.0434e-01,0.0512422
1.0437e-01,0.0530469
1.0440e-01,0.0567188
1.0443e-01,0.0597344
1.0446e-01,0.0600859
1.0450e-01,0.0605
1.0453e-01,0.0615313
1.0456e-01,0.0693359
1.0459e-01,0.0717188
1.0462e-01,0.0722109
1.0466e-01,0.0717109
1.0469e-01,0.0801484
1.0472e-01,0.085375
1.0475e-01,0.08775
1.0478e-01,0.0933672
1.0482e-01,0.0959922
1.0485e-01,0.0997578
1.0488e-01,0.106359
1.0491e-01,0.104797
1.0494e-01,0.102531
1.0498e-01,0.101305
1.0501e-01,0.100297
1.0504e-01,0.10032
1.0507e-01,0.099375
1.0510e-01,0.0975078
1.0514e-01,0.0983672
1.0517e-01,0.101195
1.0520e-01,0.0987344
1.0523e-01,0.0991406
1.0526e-01,0.101664
1.0530e-01,0.100992
1.0533e-01,0.101461
1.0536e-01,0.101344
1.0539e-01,0.0973828
1.0542e-01,0.0917578
1.0546e-01,0.0898281
1.0549e-01,0.0891875
1.0552e-01,0.0891719
1.0555e-01,0.0865938
1.0558e-01,0.0846016
1.0562e-01,0.0774453
1.0565e-01,0.0746797
1.0568e-01,0.0703203
1.0571e-01,0.0660938
1.0574e-01,0.061125
1.0578e-01,0.0595938
1.0581e-01,0.0576563
1.0584e-01,0.0553359
1.0587e-01,0.0566172
1.0590e-01,0.0545547
1.0594e-01,0.0524453
1.0597e-01,0.0491719
1.0600e-01,0.0452578
1.0603e-01,0.0409375
1.0606e-01,0.0414844
1.0610e-01,0.0390859
1.0613e-01,0.0379922
1.0616e-01,0.0363594
1.0619e-01,0.0361484
1.0622e-01,0.0352344
1.0626e-01,0.0328594
1.0629e-01,0.032625
1.0632e-01,0.0339063
1.0635e-01,0.0376797
1.0638e-01,0.0371797
1.0642e-01,0.0352734
1.0645e-01,0.0337031
1.0648e-01,0.0338594
1.0651e-01,0.0345781
1.0654e-01,0.0366172
1.0658e-01,0.0395
1.0661e-01,0.0403516
1.0664e-01,0.0402969
1.0667e-01,0.0431094
1.0670e-01,0.0430078
1.0674e-01,0.0468438
1.0677e-01,0.0470078
1.0680e-01,0.04575
1.0683e-01,0.0467813
1.0686e-01,0.0525313
1.0690e-01,0.0605078
1.0693e-01,0.0662656
1.0696e-01,0.0727734
1.0699e-01,0.0760078
1.0702e-01,0.0804844
1.0706e-01,0.0823984
1.0709e-01,0.0803984
1.0712e-01,0.0820703
1.0715e-01,0.0737266
1.0718e-01,0.0676484
1.0722e-01,0.0612578
1.0725e-01,0.0588906
1.0728e-01,0.0571563
1.0731e-01,0.0562813
1.0734e-01,0.0512891
1.0738e-01,0.0519609
1.0741e-01,0.0530156
1.0744e-01,0.0584297
1.0747e-01,0.0656406
1.0750e-01,0.083625
1.0754e-01,0.0978516
1.0757e-01,0.116109
1.0760e-01,0.133305
1.0763e-01,0.138695
1.0766e-01,0.136367
1.0770e-01,0.131664
1.0773e-01,0.11868
1.0776e-01,0.105313
1.0779e-01,0.0924453
1.0782e-01,0.0829219
1.0786e-01,0.0715703
1.0789e-01,0.0648672
1.0792e-01,0.0576953
1.0795e-01,0.0545313
1.0798e-01,0.0539688
1.0802e-01,0.0563047
1.0805e-01,0.0661875
1.0808e-01,0.0763672
1.0811e-01,0.0806953
1.0814e-01,0.0795703
1.0818e-01,0.0791484
1.0821e-01,0.0777031
1.0824e-01,0.0723359
1.0827e-01,0.0644141
1.0830e-01,0.0587109
1.0834e-01,0.0539531
1.0837e-01,0.0465703
1.0840e-01,0.0443984
1.0843e-01,0.0415469
1.0846e-01,0.0389375
1.0850e-01,0.0391719
1.0853e-01,0.037875
1.0856e-01,0.0386328
1.0859e-01,0.037875
1.0862e-01,0.0359219
1.0866e-01,0.0355156
1.0869e-01,0.0344688
1.0872e-01,0.032625
1.0875e-01,0.0327578
1.0878e-01,0.0357344
1.0882e-01,0.0366563
1.0885e-01,0.0356406
1.0888e-01,0.0431641
1.0891e-01,0.0510156
1.0894e-01,0.0652578
1.0898e-01,0.0704609
1.0901e-01,0.0738516
1.0904e-01,0.0716094
1.0907e-01,0.0689297
1.0910e-01,0.0653359
1.0914e-01,0.0628984
1.0917e-01,0.0584453
1.0920e-01,0.0555
1.0923e-01,0.0526172
1.0926e-01,0.0587969
1.0930e-01,0.06825
1.0933e-01,0.0843984
1.0936e-01,0.100734
1.0939e-01,0.107328
1.0942e-01,0.107391
1.0946e-01,0.101672
1.0949e-01,0.0914453
1.0952e-01,0.0813438
1.0955e-01,0.0695938
1.0958e-01,0.0633984
1.0962e-01,0.0628594
1.0965e-01,0.0665391
1.0968e-01,0.0759531
1.0971e-01,0.0804375
1.0974e-01,0.0792109
1.0978e-01,0.0777734
1.0981e-01,0.0732891


