Model,MSO2024
Firmware Version,1.52

Point Format,Y
Horizontal Units,S
Horizontal Scale,0.004
Sample Interval,1.28e-05
Filter Frequency,2e+08
Record Length,3125
Gating,0.0% to 100.0%
Probe Attenuation,1
Vertical Units,V
Vertical Offset,0
Vertical Scale,0.02
Label,
TIME,CH1
3.984e-02,0.0209281
3.985e-02,0.0216031
3.987e-02,0.02165
3.988e-02,0.0216906
3.989e-02,0.022275
3.990e-02,0.0226906
3.992e-02,0.0228531
3.993e-02,0.0226969
3.994e-02,0.02225
3.996e-02,0.0220719
3.997e-02,0.0220469
3.998e-02,0.0223812
3.999e-02,0.0223437
4.001e-02,0.0229156
4.002e-02,0.0238625
4.003e-02,0.0240187
4.004e-02,0.0236969
4.006e-02,0.0239906
4.007e-02,0.0240531
4.008e-02,0.0243469
4.010e-02,0.0248281
4.011e-02,0.0252875
4.012e-02,0.0248906
4.013e-02,0.0256969
4.015e-02,0.0259656
4.016e-02,0.0262562
4.017e-02,0.0273031
4.019e-02,0.0269
4.020e-02,0.0261656
4.021e-02,0.0265531
4.022e-02,0.0269406
4.024e-02,0.0264594
4.025e-02,0.0263062
4.026e-02,0.0258281
4.028e-02,0.0254844
4.029e-02,0.0257219
4.030e-02,0.0267062
4.031e-02,0.0270281
4.033e-02,0.0266344
4.034e-02,0.0267156
4.035e-02,0.0266062
4.036e-02,0.026925
4.038e-02,0.0275062
4.039e-02,0.026925
4.040e-02,0.0271875
4.042e-02,0.0271437
4.043e-02,0.0272906
4.044e-02,0.0268625
4.045e-02,0.0274187
4.047e-02,0.0275969
4.048e-02,0.0276875
4.049e-02,0.0283062
4.051e-02,0.0283969
4.052e-02,0.0288156
4.053e-02,0.0289844
4.054e-02,0.0297719
4.056e-02,0.0314406
4.057e-02,0.0309594
4.058e-02,0.0307281
4.060e-02,0.0299469
4.061e-02,0.0307562
4.062e-02,0.0306687
4.063e-02,0.0305562
4.065e-02,0.0312562
4.066e-02,0.03125
4.067e-02,0.0314781
4.068e-02,0.0319281
4.070e-02,0.0318562
4.071e-02,0.0320375
4.072e-02,0.0323969
4.074e-02,0.0320219
4.075e-02,0.0328937
4.076e-02,0.03295
4.077e-02,0.0326344
4.079e-02,0.0339906
4.080e-02,0.0342469
4.081e-02,0.0347656
4.083e-02,0.0353156
4.084e-02,0.0353844
4.085e-02,0.0352094
4.086e-02,0.0364469
4.088e-02,0.0368625
4.089e-02,0.0372156
4.090e-02,0.0372375
4.092e-02,0.0376031
4.093e-02,0.0382344
4.094e-02,0.0392594
4.095e-02,0.0396281
4.097e-02,0.0401937
4.098e-02,0.0418625
4.099e-02,0.0427219
4.100e-02,0.0441312
4.102e-02,0.0458812
4.103e-02,0.0469094
4.104e-02,0.0477906
4.106e-02,0.0480469
4.107e-02,0.0476812
4.108e-02,0.0489062
4.109e-02,0.0492469
4.111e-02,0.0511625
4.112e-02,0.0524406
4.113e-02,0.0539281
4.115e-02,0.0546937
4.116e-02,0.0553344
4.117e-02,0.0548094
4.118e-02,0.0550969
4.120e-02,0.0555875
4.121e-02,0.0552531
4.122e-02,0.0559719
4.124e-02,0.0564
4.125e-02,0.0578156
4.126e-02,0.0591969
4.127e-02,0.0588344
4.129e-02,0.0589812
4.130e-02,0.0595094
4.131e-02,0.0597937
4.132e-02,0.0597187
4.134e-02,0.059625
4.135e-02,0.0601437
4.136e-02,0.06115
4.138e-02,0.0605875
4.139e-02,0.0613281
4.140e-02,0.0614031
4.141e-02,0.0610219
4.143e-02,0.0619437
4.144e-02,0.0621719
4.145e-02,0.0619562
4.147e-02,0.0613781
4.148e-02,0.0607687
4.149e-02,0.0611062
4.150e-02,0.0617031
4.152e-02,0.0608844
4.153e-02,0.060375
4.154e-02,0.0598656
4.156e-02,0.0590812
4.157e-02,0.0591281
4.158e-02,0.0577844
4.159e-02,0.0549344
4.161e-02,0.0531094
4.162e-02,0.0533187
4.163e-02,0.0535969
4.164e-02,0.0534125
4.166e-02,0.0530687
4.167e-02,0.0521594
4.168e-02,0.050975
4.170e-02,0.04985
4.171e-02,0.0483125
4.172e-02,0.0465812
4.173e-02,0.0450062
4.175e-02,0.0440031
4.176e-02,0.0421125
4.177e-02,0.0412906
4.179e-02,0.0414
4.180e-02,0.0403594
4.181e-02,0.0400375
4.182e-02,0.0395062
4.184e-02,0.0382969
4.185e-02,0.0379406
4.186e-02,0.0368687
4.188e-02,0.0352375
4.189e-02,0.0346062
4.190e-02,0.0347719
4.191e-02,0.0335281
4.193e-02,0.03255
4.194e-02,0.0322062
4.195e-02,0.0319469
4.196e-02,0.031275
4.198e-02,0.0298125
4.199e-02,0.0289531
4.200e-02,0.0293312
4.202e-02,0.0297719
4.203e-02,0.0301844
4.204e-02,0.0299625
4.205e-02,0.0298156
4.207e-02,0.0297875
4.208e-02,0.0287531
4.209e-02,0.0274344
4.211e-02,0.0264906
4.212e-02,0.0263469
4.213e-02,0.026475
4.214e-02,0.0267719
4.216e-02,0.0263437
4.217e-02,0.0262437
4.218e-02,0.0264312
4.220e-02,0.0268406
4.221e-02,0.0265812
4.222e-02,0.0264156
4.223e-02,0.0259187
4.225e-02,0.0252219
4.226e-02,0.0256656
4.227e-02,0.0250781
4.228e-02,0.0245906
4.230e-02,0.0247781
4.231e-02,0.0248406
4.232e-02,0.0242094
4.234e-02,0.0237687
4.235e-02,0.0232094
4.236e-02,0.0229469
4.237e-02,0.0220969
4.239e-02,0.0219344
4.240e-02,0.0221031
4.241e-02,0.0223125
4.243e-02,0.0221625
4.244e-02,0.0211937
4.245e-02,0.0217187
4.246e-02,0.0219812
4.248e-02,0.0216687
4.249e-02,0.0210781
4.250e-02,0.0208594
4.252e-02,0.021475
4.253e-02,0.0220656
4.254e-02,0.022575
4.255e-02,0.022225
4.257e-02,0.0219906
4.258e-02,0.0217656
4.259e-02,0.0213125
4.260e-02,0.02175
4.262e-02,0.0218125
4.263e-02,0.0219062
4.264e-02,0.021575
4.266e-02,0.0212625
4.267e-02,0.0206656
4.268e-02,0.020175
4.269e-02,0.0206594
4.271e-02,0.0203187
4.272e-02,0.0209062
4.273e-02,0.02115
4.275e-02,0.0205562
4.276e-02,0.0199875
4.277e-02,0.0196812
4.278e-02,0.0197344
4.280e-02,0.0198687
4.281e-02,0.0198344
4.282e-02,0.0193844
4.284e-02,0.0191531
4.285e-02,0.0192125
4.286e-02,0.0190469
4.287e-02,0.0183594
4.289e-02,0.0178562
4.290e-02,0.0178937
4.291e-02,0.0187406
4.292e-02,0.0189437
4.294e-02,0.0192812
4.295e-02,0.0190375
4.296e-02,0.0187281
4.298e-02,0.0188562
4.299e-02,0.0192437
4.300e-02,0.0199344
4.301e-02,0.0200094
4.303e-02,0.0198781
4.304e-02,0.0192156
4.305e-02,0.0191531
4.307e-02,0.0195031
4.308e-02,0.0199625
4.309e-02,0.0200719
4.310e-02,0.0194625
4.312e-02,0.0190937
4.313e-02,0.0191969
4.314e-02,0.0192844
4.316e-02,0.0197219
4.317e-02,0.0201469
4.318e-02,0.0202156
4.319e-02,0.0200031
4.321e-02,0.01955
4.322e-02,0.0199125
4.323e-02,0.0196437
4.324e-02,0.0189562
4.326e-02,0.0193687
4.327e-02,0.0197937
4.328e-02,0.0196719
4.330e-02,0.0189125
4.331e-02,0.0188687
4.332e-02,0.0185094
4.333e-02,0.0184
4.335e-02,0.0190125
4.336e-02,0.0192687
4.337e-02,0.0195969
4.339e-02,0.0199469
4.340e-02,0.0194375
4.341e-02,0.0195531
4.342e-02,0.019675
4.344e-02,0.0201406
4.345e-02,0.0198375
4.346e-02,0.02005
4.348e-02,0.0199656
4.349e-02,0.0194656
4.350e-02,0.0189375
4.351e-02,0.0187937
4.353e-02,0.0191844
4.354e-02,0.0196156
4.355e-02,0.0193844
4.356e-02,0.0190375
4.358e-02,0.0195687
4.359e-02,0.0196687
4.360e-02,0.0199375
4.362e-02,0.0201219
4.363e-02,0.0200625
4.364e-02,0.0202312
4.365e-02,0.019625
4.367e-02,0.0197656
4.368e-02,0.0204312
4.369e-02,0.0203531
4.371e-02,0.0196875
4.372e-02,0.0191125
4.373e-02,0.0187906
4.374e-02,0.0186
4.376e-02,0.019125
4.377e-02,0.0194781
4.378e-02,0.02015
4.380e-02,0.0200219
4.381e-02,0.0200281
4.382e-02,0.0202
4.383e-02,0.0205375
4.385e-02,0.0201656
4.386e-02,0.0199781
4.387e-02,0.0204781
4.388e-02,0.0209625
4.390e-02,0.021025
4.391e-02,0.0213594
4.392e-02,0.0211156
4.394e-02,0.0205906
4.395e-02,0.0203094
4.396e-02,0.020275
4.397e-02,0.0201219
4.399e-02,0.0198469
4.400e-02,0.0192781
4.401e-02,0.0198656
4.403e-02,0.0199156
4.404e-02,0.0200781
4.405e-02,0.0195219
4.406e-02,0.0195625
4.408e-02,0.0197812
4.409e-02,0.0196875
4.410e-02,0.0195562
4.412e-02,0.0194531
4.413e-02,0.0193
4.414e-02,0.0191937
4.415e-02,0.0193187
4.417e-02,0.0208094
4.418e-02,0.0207312
4.419e-02,0.020375
4.420e-02,0.0202594
4.422e-02,0.0203312
4.423e-02,0.0202844
4.424e-02,0.0204187
4.426e-02,0.0210937
4.427e-02,0.0209594
4.428e-02,0.0207625
4.429e-02,0.0203281
4.431e-02,0.02035
4.432e-02,0.0205781
4.433e-02,0.020325
4.435e-02,0.02005
4.436e-02,0.0196875
4.437e-02,0.0195031
4.438e-02,0.0191
4.440e-02,0.0191219
4.441e-02,0.0198812
4.442e-02,0.0200219
4.444e-02,0.0203281
4.445e-02,0.0203344
4.446e-02,0.0196094
4.447e-02,0.0196937
4.449e-02,0.0198687
4.450e-02,0.0190562
4.451e-02,0.0200094
4.452e-02,0.0215219
4.454e-02,0.0213187
4.455e-02,0.0212469
4.456e-02,0.0210281
4.458e-02,0.020475
4.459e-02,0.0205094
4.460e-02,0.0208687
4.461e-02,0.0201437
4.463e-02,0.0201062
4.464e-02,0.0200219
4.465e-02,0.0200844
4.467e-02,0.0212344
4.468e-02,0.0207156
4.469e-02,0.0201437
4.470e-02,0.019975
4.472e-02,0.0197625
4.473e-02,0.0198031
4.474e-02,0.0202844
4.476e-02,0.01985
4.477e-02,0.0204875
4.478e-02,0.0203219
4.479e-02,0.0199
4.481e-02,0.0197312
4.482e-02,0.0197625
4.483e-02,0.0202562
4.484e-02,0.0206187
4.486e-02,0.0205375
4.487e-02,0.0203437
4.488e-02,0.0203219
4.490e-02,0.0200219
4.491e-02,0.0195781
4.492e-02,0.0197937
4.493e-02,0.0199562
4.495e-02,0.0199062
4.496e-02,0.0202094
4.497e-02,0.0200187
4.499e-02,0.02015
4.500e-02,0.0199844
4.501e-02,0.0208906
4.502e-02,0.0211594
4.504e-02,0.0212375
4.505e-02,0.0213625
4.506e-02,0.0215094
4.508e-02,0.0215844
4.509e-02,0.0218031
4.510e-02,0.0218625
4.511e-02,0.0224625
4.513e-02,0.0219187
4.514e-02,0.0215312
4.515e-02,0.0213594
4.516e-02,0.0212625
4.518e-02,0.0206562
4.519e-02,0.0214969
4.520e-02,0.0220937
4.522e-02,0.0222687
4.523e-02,0.0221844
4.524e-02,0.0218969
4.525e-02,0.0216656
4.527e-02,0.0221562
4.528e-02,0.0223375
4.529e-02,0.0225281
4.531e-02,0.0227625
4.532e-02,0.02295
4.533e-02,0.023625
4.534e-02,0.0244531
4.536e-02,0.0241344
4.537e-02,0.0239531
4.538e-02,0.0247812
4.540e-02,0.0244344
4.541e-02,0.0235625
4.542e-02,0.022775
4.543e-02,0.0220625
4.545e-02,0.0224969
4.546e-02,0.0230625
4.547e-02,0.0235906
4.548e-02,0.0243906
4.550e-02,0.0248062
4.551e-02,0.0256187
4.552e-02,0.0253031
4.554e-02,0.025075
4.555e-02,0.0248031
4.556e-02,0.0243125
4.557e-02,0.0240781
4.559e-02,0.0245625
4.560e-02,0.0256281
4.561e-02,0.0259844
4.563e-02,0.0260344
4.564e-02,0.0263687
4.565e-02,0.0269281
4.566e-02,0.0282437
4.568e-02,0.0288375
4.569e-02,0.0290812
4.570e-02,0.0293906
4.572e-02,0.0294281
4.573e-02,0.0296437
4.574e-02,0.0297375
4.575e-02,0.029975
4.577e-02,0.030025
4.578e-02,0.0293312
4.579e-02,0.0288531
4.580e-02,0.0289937
4.582e-02,0.0289687
4.583e-02,0.0289219
4.584e-02,0.0290937
4.586e-02,0.0295031
4.587e-02,0.0294
4.588e-02,0.0296469
4.589e-02,0.0307062
4.591e-02,0.0309656
4.592e-02,0.0316812
4.593e-02,0.0325344
4.595e-02,0.0324437
4.596e-02,0.0324719
4.597e-02,0.0321344
4.598e-02,0.0316812
4.600e-02,0.0316156
4.601e-02,0.0320937
4.602e-02,0.0324687
4.604e-02,0.0319312
4.605e-02,0.0318187
4.606e-02,0.032725
4.607e-02,0.0340594
4.609e-02,0.0350469
4.610e-02,0.03525
4.611e-02,0.0359781
4.612e-02,0.0366094
4.614e-02,0.03665
4.615e-02,0.0370687
4.616e-02,0.0370469
4.618e-02,0.0373344
4.619e-02,0.0368312
4.620e-02,0.0366562
4.621e-02,0.036375
4.623e-02,0.0362656
4.624e-02,0.03605
4.625e-02,0.0380156
4.627e-02,0.0391687
4.628e-02,0.0390187
4.629e-02,0.0391406
4.630e-02,0.0411562
4.632e-02,0.0414187
4.633e-02,0.0422687
4.634e-02,0.0431719
4.636e-02,0.0427875
4.637e-02,0.0439562
4.638e-02,0.0442281
4.639e-02,0.0455312
4.641e-02,0.0442812
4.642e-02,0.04405
4.643e-02,0.0446406
4.644e-02,0.0459687
4.646e-02,0.0469156
4.647e-02,0.0488812
4.648e-02,0.0498469
4.650e-02,0.0501969
4.651e-02,0.0505
4.652e-02,0.0515187
4.653e-02,0.0522062
4.655e-02,0.0537969
4.656e-02,0.0543812
4.657e-02,0.0549594
4.659e-02,0.0556312
4.660e-02,0.0559156
4.661e-02,0.0575562
4.662e-02,0.0581375
4.664e-02,0.0582
4.665e-02,0.0579312
4.666e-02,0.0589625
4.668e-02,0.0595344
4.669e-02,0.0586875
4.670e-02,0.0581156
4.671e-02,0.0576125
4.673e-02,0.057075
4.674e-02,0.0563406
4.675e-02,0.0557312
4.676e-02,0.0551875
4.678e-02,0.0553
4.679e-02,0.0557062
4.680e-02,0.0563156
4.682e-02,0.0567031
4.683e-02,0.056375
4.684e-02,0.0554125
4.685e-02,0.0567594
4.687e-02,0.0566875
4.688e-02,0.0571687
4.689e-02,0.0565375
4.691e-02,0.0550094
4.692e-02,0.0545
4.693e-02,0.0530812
4.694e-02,0.0516469
4.696e-02,0.0517187
4.697e-02,0.0507437
4.698e-02,0.050375
4.700e-02,0.0500937
4.701e-02,0.0495406
4.702e-02,0.0482969
4.703e-02,0.046575
4.705e-02,0.04555
4.706e-02,0.0443
4.707e-02,0.0432969
4.708e-02,0.0423781
4.710e-02,0.0411031
4.711e-02,0.0402031
4.712e-02,0.0395656
4.714e-02,0.0388687
4.715e-02,0.0392562
4.716e-02,0.0391594
4.717e-02,0.0389312
4.719e-02,0.0369906
4.720e-02,0.03705
4.721e-02,0.0372687
4.723e-02,0.0375562
4.724e-02,0.0384031
4.725e-02,0.0375625
4.726e-02,0.037275
4.728e-02,0.0370594
4.729e-02,0.0358687
4.730e-02,0.0343687
4.732e-02,0.0339406
4.733e-02,0.0330281
4.734e-02,0.0326562
4.735e-02,0.0320531
4.737e-02,0.0311125
4.738e-02,0.0302281
4.739e-02,0.0308312
4.740e-02,0.0308375
4.742e-02,0.0298187
4.743e-02,0.0295281
4.744e-02,0.0297187
4.746e-02,0.0297406
4.747e-02,0.0301031
4.748e-02,0.0296687
4.749e-02,0.0299156
4.751e-02,0.0299219
4.752e-02,0.0299844
4.753e-02,0.0293187
4.755e-02,0.0297281
4.756e-02,0.0288344
4.757e-02,0.028275
4.758e-02,0.0282594
4.760e-02,0.0278969
4.761e-02,0.0277437
4.762e-02,0.0278875
4.764e-02,0.0279375
4.765e-02,0.0281437
4.766e-02,0.02765
4.767e-02,0.0273562
4.769e-02,0.0275281
4.770e-02,0.0272437
4.771e-02,0.0270562
4.772e-02,0.0272719
4.774e-02,0.0280781
4.775e-02,0.0285219
4.776e-02,0.0289125
4.778e-02,0.0281375
4.779e-02,0.0279594
4.780e-02,0.027875
4.781e-02,0.0283344
4.783e-02,0.0281875
4.784e-02,0.0281406
4.785e-02,0.0276562
4.787e-02,0.0267875
4.788e-02,0.0267156
4.789e-02,0.0269562
4.790e-02,0.0271375
4.792e-02,0.0268406
4.793e-02,0.0261344
4.794e-02,0.025575
4.796e-02,0.0257281
4.797e-02,0.0259469
4.798e-02,0.0261406
4.799e-02,0.027
4.801e-02,0.0266062
4.802e-02,0.0265
4.803e-02,0.0265656
4.804e-02,0.0265875
4.806e-02,0.0256875
4.807e-02,0.0254
4.808e-02,0.0247281
4.810e-02,0.0248156
4.811e-02,0.0252875
4.812e-02,0.0253406
4.813e-02,0.0256656
4.815e-02,0.0250281
4.816e-02,0.0242844
4.817e-02,0.0237406
4.819e-02,0.02345
4.820e-02,0.0238812
4.821e-02,0.0242062
4.822e-02,0.0237031
4.824e-02,0.0230156
4.825e-02,0.0227437
4.826e-02,0.0218562
4.828e-02,0.02165
4.829e-02,0.0218031
4.830e-02,0.0216937
4.831e-02,0.0217531
4.833e-02,0.0220219
4.834e-02,0.0215344
4.835e-02,0.0218531
4.836e-02,0.0210875
4.838e-02,0.0204281
4.839e-02,0.0208562
4.840e-02,0.0218844
4.842e-02,0.0216844
4.843e-02,0.0214687
4.844e-02,0.0218375
4.845e-02,0.021875
4.847e-02,0.0215906
4.848e-02,0.0221844
4.849e-02,0.0219906
4.851e-02,0.0215094
4.852e-02,0.0209719
4.853e-02,0.0203937
4.854e-02,0.0206156
4.856e-02,0.020975
4.857e-02,0.0210906
4.858e-02,0.0210562
4.860e-02,0.021175
4.861e-02,0.0212094
4.862e-02,0.0214062
4.863e-02,0.0210375
4.865e-02,0.0205812
4.866e-02,0.020675
4.867e-02,0.0209625
4.868e-02,0.0205906
4.870e-02,0.0204906
4.871e-02,0.0208406
4.872e-02,0.0208062
4.874e-02,0.0204562
4.875e-02,0.0208656
4.876e-02,0.0208531
4.877e-02,0.0204031
4.879e-02,0.0206625
4.880e-02,0.0210062
4.881e-02,0.0212219
4.883e-02,0.0214937
4.884e-02,0.0215062
4.885e-02,0.0214531
4.886e-02,0.0212125
4.888e-02,0.0209125
4.889e-02,0.0211812
4.890e-02,0.0210375
4.892e-02,0.0211844
4.893e-02,0.0208219
4.894e-02,0.0202
4.895e-02,0.0197687
4.897e-02,0.0202344
4.898e-02,0.0203906
4.899e-02,0.0202312
4.900e-02,0.0200687
4.902e-02,0.0204125
4.903e-02,0.0209062
4.904e-02,0.0216281
4.906e-02,0.0217062
4.907e-02,0.0216687
4.908e-02,0.021
4.909e-02,0.0209219
4.911e-02,0.0211625
4.912e-02,0.0220531
4.913e-02,0.0221937
4.915e-02,0.0223844
4.916e-02,0.0223969
4.917e-02,0.0233031
4.918e-02,0.0235469
4.920e-02,0.0241
4.921e-02,0.0233687
4.922e-02,0.0231187
4.924e-02,0.023275
4.925e-02,0.0231437
4.926e-02,0.0226281
4.927e-02,0.0219469
4.929e-02,0.0214219
4.930e-02,0.0211812
4.931e-02,0.0208094
4.932e-02,0.0205875
4.934e-02,0.0208719
4.935e-02,0.020775
4.936e-02,0.0209062
4.938e-02,0.0212031
4.939e-02,0.0208875
4.940e-02,0.020875
4.941e-02,0.0203344
4.943e-02,0.0207062
4.944e-02,0.021
4.945e-02,0.0211094
4.947e-02,0.0209344
4.948e-02,0.0207656
4.949e-02,0.0210406
4.950e-02,0.0217406
4.952e-02,0.0209812
4.953e-02,0.0208969
4.954e-02,0.0208375
4.956e-02,0.0207406
4.957e-02,0.0206312
4.958e-02,0.0215719
4.959e-02,0.0215344
4.961e-02,0.0213875
4.962e-02,0.0221437
4.963e-02,0.0220062
4.964e-02,0.0217562
4.966e-02,0.0219625
4.967e-02,0.0228906
4.968e-02,0.0233187
4.970e-02,0.0240844
4.971e-02,0.023625
4.972e-02,0.0233719
4.973e-02,0.0235125
4.975e-02,0.0234812
4.976e-02,0.022925
4.977e-02,0.0235437
4.979e-02,0.0236781
4.980e-02,0.0232187
4.981e-02,0.0229437
4.982e-02,0.0229031
4.984e-02,0.0231469
4.985e-02,0.0233719
4.986e-02,0.0238125
4.988e-02,0.0247125
4.989e-02,0.0244469
4.990e-02,0.0248656
4.991e-02,0.02525
4.993e-02,0.0248312
4.994e-02,0.0246812
4.995e-02,0.024325
4.996e-02,0.0243437
4.998e-02,0.0247375
4.999e-02,0.0248937
5.000e-02,0.0255
5.002e-02,0.0255406
5.003e-02,0.02605
5.004e-02,0.0267156
5.005e-02,0.0270187
5.007e-02,0.0271344
5.008e-02,0.027075
5.009e-02,0.0274656
5.011e-02,0.0269844
5.012e-02,0.0270531
5.013e-02,0.026775
5.014e-02,0.027375
5.016e-02,0.0276656
5.017e-02,0.0289219
5.018e-02,0.0299344
5.020e-02,0.0302281
5.021e-02,0.0303062
5.022e-02,0.0304969
5.023e-02,0.0313219
5.025e-02,0.0316594
5.026e-02,0.0325656
5.027e-02,0.0324156
5.028e-02,0.0336062
5.030e-02,0.035175
5.031e-02,0.0356625
5.032e-02,0.0360781
5.034e-02,0.0368094
5.035e-02,0.038125
5.036e-02,0.0389031
5.037e-02,0.0406375
5.039e-02,0.0413125
5.040e-02,0.0410937
5.041e-02,0.0408312
5.043e-02,0.0409625
5.044e-02,0.0411531
5.045e-02,0.0417781
5.046e-02,0.0425094
5.048e-02,0.0437656
5.049e-02,0.0445687
5.050e-02,0.0451437
5.052e-02,0.0453219
5.053e-02,0.0465375
5.054e-02,0.0480219
5.055e-02,0.0492344
5.057e-02,0.0512312
5.058e-02,0.0523812
5.059e-02,0.0533812
5.060e-02,0.0520906
5.062e-02,0.05215
5.063e-02,0.053225
5.064e-02,0.0536437
5.066e-02,0.0544062
5.067e-02,0.0551281
5.068e-02,0.0557219
5.069e-02,0.0557
5.071e-02,0.0578062
5.072e-02,0.0586062
5.073e-02,0.0570937
5.075e-02,0.0561594
5.076e-02,0.0557156
5.077e-02,0.0549656
5.078e-02,0.0548
5.080e-02,0.0552125
5.081e-02,0.0565125
5.082e-02,0.0573031
5.084e-02,0.0570406
5.085e-02,0.0575406
5.086e-02,0.0566
5.087e-02,0.0566687
5.089e-02,0.0561969
5.090e-02,0.0548562
5.091e-02,0.0545656
5.092e-02,0.0536031
5.094e-02,0.0520625
5.095e-02,0.05125
5.096e-02,0.050125
5.098e-02,0.0502437
5.099e-02,0.0497469
5.100e-02,0.0490531
5.101e-02,0.0483656
5.103e-02,0.0465375
5.104e-02,0.04565
5.105e-02,0.0443875
5.107e-02,0.0431687
5.108e-02,0.0431687
5.109e-02,0.0418094
5.110e-02,0.0407094
5.112e-02,0.0400875
5.113e-02,0.0392562
5.114e-02,0.0382625
5.116e-02,0.037025
5.117e-02,0.0369875
5.118e-02,0.0366312
5.119e-02,0.0361562
5.121e-02,0.035325
5.122e-02,0.0344781
5.123e-02,0.03335
5.124e-02,0.0323781
5.126e-02,0.0319156
5.127e-02,0.0317156
5.128e-02,0.0316906
5.130e-02,0.030825
5.131e-02,0.0306125
5.132e-02,0.030675
5.133e-02,0.0297875
5.135e-02,0.0292594
5.136e-02,0.0282719
5.137e-02,0.0275687
5.139e-02,0.028125
5.140e-02,0.0279781
5.141e-02,0.027775
5.142e-02,0.0278281
5.144e-02,0.0274437
5.145e-02,0.0269625
5.146e-02,0.026675
5.148e-02,0.0256687
5.149e-02,0.0250812
5.150e-02,0.0242875
5.151e-02,0.0232344
5.153e-02,0.0230594
5.154e-02,0.0231594
5.155e-02,0.0228469
5.156e-02,0.0221406
5.158e-02,0.0217406
5.159e-02,0.0216656
5.160e-02,0.0214187
5.162e-02,0.0212344
5.163e-02,0.0219094
5.164e-02,0.0216656
5.165e-02,0.0215469
5.167e-02,0.0219719
5.168e-02,0.021625
5.169e-02,0.0216219
5.171e-02,0.0215562
5.172e-02,0.021725
5.173e-02,0.0217281
5.174e-02,0.0215281
5.176e-02,0.0216
5.177e-02,0.0216531
5.178e-02,0.0219594
5.180e-02,0.0222531
5.181e-02,0.0216844
5.182e-02,0.0218437
5.183e-02,0.0226937
5.185e-02,0.0224156
5.186e-02,0.0224125
5.187e-02,0.0224
5.188e-02,0.0224156
5.190e-02,0.0224312
5.191e-02,0.0220844
5.192e-02,0.0220031
5.194e-02,0.0216469
5.195e-02,0.02225
5.196e-02,0.0219844
5.197e-02,0.0215094
5.199e-02,0.0212719
5.200e-02,0.0204937
5.201e-02,0.0199344
5.203e-02,0.0199281
5.204e-02,0.0209
5.205e-02,0.0217531
5.206e-02,0.022325
5.208e-02,0.0224156
5.209e-02,0.0219375
5.210e-02,0.0226062
5.212e-02,0.0228344
5.213e-02,0.0225594
5.214e-02,0.0217312
5.215e-02,0.0212906
5.217e-02,0.0217062
5.218e-02,0.0220281
5.219e-02,0.0217031
5.220e-02,0.0216094
5.222e-02,0.0214969
5.223e-02,0.0214906
5.224e-02,0.0208031
5.226e-02,0.02045
5.227e-02,0.0204812
5.228e-02,0.0206906
5.229e-02,0.0205406
5.231e-02,0.0209437
5.232e-02,0.0208625
5.233e-02,0.0209344
5.235e-02,0.0209031
5.236e-02,0.0213156
5.237e-02,0.0221375
5.238e-02,0.0230781
5.240e-02,0.0230375
5.241e-02,0.0223094
5.242e-02,0.0220969
5.244e-02,0.022075
5.245e-02,0.0225031
5.246e-02,0.0223125
5.247e-02,0.0215469
5.249e-02,0.0209406
5.250e-02,0.0212875
5.251e-02,0.0211875
5.252e-02,0.0213187
5.254e-02,0.0211469
5.255e-02,0.0204031
5.256e-02,0.0200312
5.258e-02,0.0197219
5.259e-02,0.0199312
5.260e-02,0.0201125
5.261e-02,0.0202719
5.263e-02,0.0197812
5.264e-02,0.0196937
5.265e-02,0.0205875
5.267e-02,0.0220906
5.268e-02,0.0219375
5.269e-02,0.0219812
5.270e-02,0.0219844
5.272e-02,0.022575
5.273e-02,0.0229906
5.274e-02,0.0232375
5.276e-02,0.0230406
5.277e-02,0.0230781
5.278e-02,0.0235406
5.279e-02,0.0232937
5.281e-02,0.0235
5.282e-02,0.0235625
5.283e-02,0.0240875
5.284e-02,0.0240531
5.286e-02,0.0233062
5.287e-02,0.0231062
5.288e-02,0.0227469
5.290e-02,0.0228312
5.291e-02,0.0230781
5.292e-02,0.0230812
5.293e-02,0.0235656
5.295e-02,0.0238656
5.296e-02,0.0238937
5.297e-02,0.0229281
5.299e-02,0.0224812
5.300e-02,0.0226375
5.301e-02,0.0231375
5.302e-02,0.0241687
5.304e-02,0.0244312
5.305e-02,0.0246375
5.306e-02,0.0238625
5.308e-02,0.0242094
5.309e-02,0.02525
5.310e-02,0.0258031
5.311e-02,0.0253781
5.313e-02,0.0245281
5.314e-02,0.0246031
5.315e-02,0.0242437
5.316e-02,0.0240687
5.318e-02,0.0245312
5.319e-02,0.02425
5.320e-02,0.0236187
5.322e-02,0.0238844
5.323e-02,0.0237937
5.324e-02,0.0240219
5.325e-02,0.0236406
5.327e-02,0.0230812
5.328e-02,0.0232094
5.329e-02,0.0236562
5.331e-02,0.0239031
5.332e-02,0.0237875
5.333e-02,0.0233781
5.334e-02,0.0234625
5.336e-02,0.0235625
5.337e-02,0.022775
5.338e-02,0.0222844
5.340e-02,0.02225
5.341e-02,0.0219969
5.342e-02,0.0213312
5.343e-02,0.0213906
5.345e-02,0.0217437
5.346e-02,0.0224969
5.347e-02,0.0225375
5.348e-02,0.0222562
5.350e-02,0.0214344
5.351e-02,0.0216125
5.352e-02,0.0218469
5.354e-02,0.0215844
5.355e-02,0.0213344
5.356e-02,0.0211
5.357e-02,0.0210687
5.359e-02,0.0211875
5.360e-02,0.021525
5.361e-02,0.0214156
5.363e-02,0.0211625
5.364e-02,0.0207656
5.365e-02,0.0205562
5.366e-02,0.0208156
5.368e-02,0.0215625
5.369e-02,0.0213656
5.370e-02,0.0208625
5.372e-02,0.0207
5.373e-02,0.0203406
5.374e-02,0.0208281
5.375e-02,0.0205594
5.377e-02,0.0213125
5.378e-02,0.0214812
5.379e-02,0.0210125
5.380e-02,0.0208219
5.382e-02,0.0206719
5.383e-02,0.0200469
5.384e-02,0.0201031
5.386e-02,0.0206531
5.387e-02,0.0206625
5.388e-02,0.0209187
5.389e-02,0.0208344
5.391e-02,0.0209562
5.392e-02,0.0205031
5.393e-02,0.0203531
5.395e-02,0.0206281
5.396e-02,0.02045
5.397e-02,0.0204437
5.398e-02,0.0201469
5.400e-02,0.0200469
5.401e-02,0.0206812
5.402e-02,0.0214062
5.404e-02,0.0211812
5.405e-02,0.0206406
5.406e-02,0.0202156
5.407e-02,0.0200469
5.409e-02,0.0201281
5.410e-02,0.0209219
5.411e-02,0.0206031
5.412e-02,0.0207531
5.414e-02,0.02055
5.415e-02,0.0204
5.416e-02,0.0207406
5.418e-02,0.0211125
5.419e-02,0.021375
5.420e-02,0.0212969
5.421e-02,0.0207125
5.423e-02,0.0207187
5.424e-02,0.0211687
5.425e-02,0.0219344
5.427e-02,0.0218969
5.428e-02,0.0221031
5.429e-02,0.0225031
5.430e-02,0.0222656
5.432e-02,0.0222656
5.433e-02,0.0228594
5.434e-02,0.0231531
5.436e-02,0.0239
5.437e-02,0.0235187
5.438e-02,0.0236937
5.439e-02,0.0237375
5.441e-02,0.0240344
5.442e-02,0.0242344
5.443e-02,0.0238594
5.444e-02,0.0234219
5.446e-02,0.0247625
5.447e-02,0.0257
5.448e-02,0.0250031
5.450e-02,0.0253437
5.451e-02,0.0258
5.452e-02,0.0254187
5.453e-02,0.0243406
5.455e-02,0.0241219
5.456e-02,0.0236937
5.457e-02,0.0239469
5.459e-02,0.0242312
5.460e-02,0.0245375
5.461e-02,0.0244969
5.462e-02,0.0238156
5.464e-02,0.023875
5.465e-02,0.0240562
5.466e-02,0.02445
5.468e-02,0.0242937
5.469e-02,0.024175
5.470e-02,0.0244469
5.471e-02,0.0248344
5.473e-02,0.0253219
5.474e-02,0.0256937
5.475e-02,0.0263937
5.476e-02,0.0270375
5.478e-02,0.0271344
5.479e-02,0.0271375
5.480e-02,0.0275469
5.482e-02,0.0275531
5.483e-02,0.0269969
5.484e-02,0.0260969
5.485e-02,0.0253906
5.487e-02,0.0249687
5.488e-02,0.0253531
5.489e-02,0.0259594
5.491e-02,0.026575
5.492e-02,0.0271219
5.493e-02,0.0279844
5.494e-02,0.0284719
5.496e-02,0.0284312
5.497e-02,0.0283062
5.498e-02,0.0284437
5.500e-02,0.02855
5.501e-02,0.0283875
5.502e-02,0.0290375
5.503e-02,0.0300844
5.505e-02,0.0301156
5.506e-02,0.0296969
5.507e-02,0.0306656
5.508e-02,0.0321875
5.510e-02,0.0334281
5.511e-02,0.0347406
5.512e-02,0.0350594
5.514e-02,0.0356094
5.515e-02,0.0366531
5.516e-02,0.0368719
5.517e-02,0.0366844
5.519e-02,0.03695
5.520e-02,0.0364844
5.521e-02,0.0378
5.523e-02,0.039175
5.524e-02,0.0400375
5.525e-02,0.0405469
5.526e-02,0.0412031
5.528e-02,0.0421531
5.529e-02,0.0434125
5.530e-02,0.0448937
5.532e-02,0.0456094
5.533e-02,0.0459156
5.534e-02,0.0472
5.535e-02,0.0481344
5.537e-02,0.0490469
5.538e-02,0.0494031
5.539e-02,0.0497656
5.540e-02,0.0503937
5.542e-02,0.0507312
5.543e-02,0.0520187
5.544e-02,0.0520625
5.546e-02,0.0525187
5.547e-02,0.0523406
5.548e-02,0.0526219
5.549e-02,0.0527156
5.551e-02,0.0529719
5.552e-02,0.053925
5.553e-02,0.0540875
5.555e-02,0.0538031
5.556e-02,0.054725
5.557e-02,0.0551437
5.558e-02,0.0541437
5.560e-02,0.0535375
5.561e-02,0.0533312
5.562e-02,0.0556187
5.564e-02,0.0552062
5.565e-02,0.0542281
5.566e-02,0.0533219
5.567e-02,0.0520281
5.569e-02,0.0503937
5.570e-02,0.0505281
5.571e-02,0.0504062
5.572e-02,0.0486594
5.574e-02,0.0479375
5.575e-02,0.0474062
5.576e-02,0.0473156
5.578e-02,0.04665
5.579e-02,0.0463062
5.580e-02,0.0463531
5.581e-02,0.0450406
5.583e-02,0.0443906
5.584e-02,0.0443844
5.585e-02,0.0428781
5.587e-02,0.0417187
5.588e-02,0.0421937
5.589e-02,0.0418594
5.590e-02,0.0411156
5.592e-02,0.0398562
5.593e-02,0.03845
5.594e-02,0.0368
5.596e-02,0.0356531
5.597e-02,0.0362437
5.598e-02,0.0358562
5.599e-02,0.0349937
5.601e-02,0.0341656
5.602e-02,0.0338281
5.603e-02,0.0337062
5.604e-02,0.032575
5.606e-02,0.0325781
5.607e-02,0.0313812
5.608e-02,0.0295187
5.610e-02,0.0287562
5.611e-02,0.0290219
5.612e-02,0.029875
5.613e-02,0.0296031
5.615e-02,0.0285187
5.616e-02,0.0283812
5.617e-02,0.027325
5.619e-02,0.0268094
5.620e-02,0.0261594
5.621e-02,0.0253031
5.622e-02,0.0246125
5.624e-02,0.0243562
5.625e-02,0.0246531
5.626e-02,0.0246281
5.628e-02,0.0246594
5.629e-02,0.0245219
5.630e-02,0.0248875
5.631e-02,0.0239344
5.633e-02,0.0233375
5.634e-02,0.0226656
5.635e-02,0.0222844
5.636e-02,0.0229094
5.638e-02,0.023
5.639e-02,0.0229562
5.640e-02,0.022675
5.642e-02,0.0222281
5.643e-02,0.0220281
5.644e-02,0.0215687
5.645e-02,0.0219156
5.647e-02,0.0221906
5.648e-02,0.0226062
5.649e-02,0.0224687
5.651e-02,0.0223062
5.652e-02,0.0221062
5.653e-02,0.0218156
5.654e-02,0.0224969
5.656e-02,0.0224625
5.657e-02,0.0223875
5.658e-02,0.0224687
5.660e-02,0.0228406
5.661e-02,0.0226687
5.662e-02,0.0218562
5.663e-02,0.021575
5.665e-02,0.0213406
5.666e-02,0.0213812
5.667e-02,0.0213625
5.668e-02,0.020825
5.670e-02,0.0209625
5.671e-02,0.0206656
5.672e-02,0.02145
5.674e-02,0.0217031
5.675e-02,0.0214781
5.676e-02,0.0213875
5.677e-02,0.0218219
5.679e-02,0.0220312
5.680e-02,0.0214156
5.681e-02,0.0213469
5.683e-02,0.0215594
5.684e-02,0.0214094
5.685e-02,0.0215687
5.686e-02,0.0214125
5.688e-02,0.0208812
5.689e-02,0.0211594
5.690e-02,0.0215531
5.692e-02,0.02195
5.693e-02,0.0220812
5.694e-02,0.0215156
5.695e-02,0.0206969
5.697e-02,0.0204125
5.698e-02,0.0196562
5.699e-02,0.0198156
5.700e-02,0.0198375
5.702e-02,0.0195469
5.703e-02,0.01915
5.704e-02,0.0193469
5.706e-02,0.0198219
5.707e-02,0.0201531
5.708e-02,0.0203469
5.709e-02,0.0197187
5.711e-02,0.0192562
5.712e-02,0.0192625
5.713e-02,0.0192437
5.715e-02,0.0187406
5.716e-02,0.0184406
5.717e-02,0.0182219
5.718e-02,0.0181562
5.720e-02,0.0181844
5.721e-02,0.0184344
5.722e-02,0.0189906
5.724e-02,0.0191406
5.725e-02,0.0191906
5.726e-02,0.0191062
5.727e-02,0.019275
5.729e-02,0.0192875
5.730e-02,0.0192406
5.731e-02,0.0194875
5.732e-02,0.0192437
5.734e-02,0.0198312
5.735e-02,0.0197219
5.736e-02,0.0192625
5.738e-02,0.0192812
5.739e-02,0.0201812
5.740e-02,0.0203812
5.741e-02,0.0198156
5.743e-02,0.0205781
5.744e-02,0.0212062
5.745e-02,0.0207031
5.747e-02,0.0200562
5.748e-02,0.0198187
5.749e-02,0.0213062
5.750e-02,0.0213625
5.752e-02,0.0209219
5.753e-02,0.0212156
5.754e-02,0.0207281
5.756e-02,0.0203719
5.757e-02,0.0205219
5.758e-02,0.0210062
5.759e-02,0.0211594
5.761e-02,0.020425
5.762e-02,0.0201844
5.763e-02,0.0201594
5.764e-02,0.0207375
5.766e-02,0.0205844
5.767e-02,0.0212594
5.768e-02,0.0216937
5.770e-02,0.0214469
5.771e-02,0.0213656
5.772e-02,0.0217687
5.773e-02,0.0220094
5.775e-02,0.0229344
5.776e-02,0.0233937
5.777e-02,0.0236406
5.779e-02,0.023325
5.780e-02,0.0232375
5.781e-02,0.0229781
5.782e-02,0.0225906
5.784e-02,0.0231
5.785e-02,0.0233687
5.786e-02,0.0236719
5.788e-02,0.0233312
5.789e-02,0.0232719
5.790e-02,0.0235094
5.791e-02,0.02375
5.793e-02,0.0232344
5.794e-02,0.0227781
5.795e-02,0.0228125
5.796e-02,0.0224562
5.798e-02,0.0221406
5.799e-02,0.0218312
5.800e-02,0.0214312
5.802e-02,0.0207625
5.803e-02,0.0209031
5.804e-02,0.0218094
5.805e-02,0.0230937
5.807e-02,0.0229281
5.808e-02,0.0231156
5.809e-02,0.0231906
5.811e-02,0.0232875
5.812e-02,0.0228844
5.813e-02,0.0234531
5.814e-02,0.0235156
5.816e-02,0.0232
5.817e-02,0.0232656
5.818e-02,0.0231094
5.820e-02,0.0224187
5.821e-02,0.0221219
5.822e-02,0.0221219
5.823e-02,0.0214281
5.825e-02,0.0218406
5.826e-02,0.0215719
5.827e-02,0.0216937
5.828e-02,0.0220094
5.830e-02,0.021975
5.831e-02,0.0225969
5.832e-02,0.0228719
5.834e-02,0.0222281
5.835e-02,0.0216094
5.836e-02,0.0215469
5.837e-02,0.0218375
5.839e-02,0.0222031
5.840e-02,0.0224156
5.841e-02,0.0226406
5.843e-02,0.0225281
5.844e-02,0.0225625
5.845e-02,0.0226062
5.846e-02,0.0234125
5.848e-02,0.0228375
5.849e-02,0.0223094
5.850e-02,0.0219062
5.852e-02,0.0217625
5.853e-02,0.0216812
5.854e-02,0.0216812
5.855e-02,0.0219562
5.857e-02,0.0218125
5.858e-02,0.021525
5.859e-02,0.0215344
5.860e-02,0.0214469
5.862e-02,0.0211312
5.863e-02,0.0213375
5.864e-02,0.0205094
5.866e-02,0.02055
5.867e-02,0.0202969
5.868e-02,0.0201406
5.869e-02,0.0203812
5.871e-02,0.0205687
5.872e-02,0.0202375
5.873e-02,0.0201094
5.875e-02,0.0197562
5.876e-02,0.0202094
5.877e-02,0.0206094
5.878e-02,0.0204875
5.880e-02,0.0202469
5.881e-02,0.0199969
5.882e-02,0.0198375
5.884e-02,0.0197062
5.885e-02,0.0200062
5.886e-02,0.0201219
5.887e-02,0.0205125
5.889e-02,0.0203187
5.890e-02,0.0203906
5.891e-02,0.0202219
5.892e-02,0.0206656
5.894e-02,0.0205344
5.895e-02,0.0203031
5.896e-02,0.0200969
5.898e-02,0.0197906
5.899e-02,0.0195844
5.900e-02,0.0197844
5.901e-02,0.0196031
5.903e-02,0.0194219
5.904e-02,0.0201187
5.905e-02,0.0201906
5.907e-02,0.0209594
5.908e-02,0.0211562
5.909e-02,0.0213969
5.910e-02,0.0218062
5.912e-02,0.0216125
5.913e-02,0.0212469
5.914e-02,0.0216312
5.916e-02,0.0218469
5.917e-02,0.0227219
5.918e-02,0.0226687
5.919e-02,0.0222031
5.921e-02,0.0220625
5.922e-02,0.0219094
5.923e-02,0.021925
5.924e-02,0.0223125
5.926e-02,0.021975
5.927e-02,0.0214625
5.928e-02,0.0211687
5.930e-02,0.0211531
5.931e-02,0.0211594
5.932e-02,0.0209125
5.933e-02,0.02155
5.935e-02,0.0216812
5.936e-02,0.0217719
5.937e-02,0.0213344
5.939e-02,0.0214969
5.940e-02,0.0219844
5.941e-02,0.0224031
5.942e-02,0.0226531
5.944e-02,0.0234094
5.945e-02,0.0242562
5.946e-02,0.024025
5.948e-02,0.0242594
5.949e-02,0.0245531
5.950e-02,0.0244344
5.951e-02,0.0246375
5.953e-02,0.0247219
5.954e-02,0.024275
5.955e-02,0.0236406
5.956e-02,0.0244781
5.958e-02,0.0247719
5.959e-02,0.0249469
5.960e-02,0.0252531
5.962e-02,0.025175
5.963e-02,0.0252812
5.964e-02,0.0253406
5.965e-02,0.0251687
5.967e-02,0.0260281
5.968e-02,0.0263562
5.969e-02,0.0264187
5.971e-02,0.0264437
5.972e-02,0.0269906
5.973e-02,0.0272437
5.974e-02,0.0272344
5.976e-02,0.0279375
5.977e-02,0.0284062
5.978e-02,0.0288125
5.980e-02,0.0289656
5.981e-02,0.027975
5.982e-02,0.0278312
5.983e-02,0.0278781
5.985e-02,0.0285531
5.986e-02,0.0288937
5.987e-02,0.029175
5.988e-02,0.0291812
5.990e-02,0.0295469
5.991e-02,0.0298937
5.992e-02,0.0308656
5.994e-02,0.0306187
5.995e-02,0.0308812
5.996e-02,0.0307875
5.997e-02,0.0304469
5.999e-02,0.0296562
6.000e-02,0.0293625
6.001e-02,0.0298812
6.003e-02,0.0307781
6.004e-02,0.0321062
6.005e-02,0.0319406
6.006e-02,0.0320875
6.008e-02,0.0322156
6.009e-02,0.0328812
6.010e-02,0.033525
6.012e-02,0.0336969
6.013e-02,0.0337531
6.014e-02,0.03515
6.015e-02,0.0369562
6.017e-02,0.0378594
6.018e-02,0.0390656
6.019e-02,0.04025
6.020e-02,0.0409406
6.022e-02,0.0406406
6.023e-02,0.0409344
6.024e-02,0.0431156
6.026e-02,0.0436719
6.027e-02,0.0446406
6.028e-02,0.04625
6.029e-02,0.0473062
6.031e-02,0.0478906
6.032e-02,0.0484031
6.033e-02,0.0484562
6.035e-02,0.0487031
6.036e-02,0.0494719
6.037e-02,0.0503406
6.038e-02,0.0507156
6.040e-02,0.0512344
6.041e-02,0.0515812
6.042e-02,0.0517812
6.044e-02,0.0521719
6.045e-02,0.0545937
6.046e-02,0.0563031
6.047e-02,0.0563406
6.049e-02,0.0554937
6.050e-02,0.056375
6.051e-02,0.0578312
6.052e-02,0.0578875
6.054e-02,0.0578469
6.055e-02,0.0581406
6.056e-02,0.0590562
6.058e-02,0.0588906
6.059e-02,0.0584812
6.060e-02,0.0579531
6.061e-02,0.0577687
6.063e-02,0.0581625
6.064e-02,0.05805
6.065e-02,0.058225
6.067e-02,0.05755
6.068e-02,0.0573062
6.069e-02,0.0583406
6.070e-02,0.0586437
6.072e-02,0.060125
6.073e-02,0.0601812
6.074e-02,0.0599906
6.076e-02,0.0596094
6.077e-02,0.0590969
6.078e-02,0.0585625
6.079e-02,0.0582719
6.081e-02,0.0588625
6.082e-02,0.0583625
6.083e-02,0.0579812
6.084e-02,0.0566437
6.086e-02,0.0554031
6.087e-02,0.0536844
6.088e-02,0.0521375
6.090e-02,0.0511406
6.091e-02,0.0498937
6.092e-02,0.0485094
6.093e-02,0.0477031
6.095e-02,0.04735
6.096e-02,0.046425
6.097e-02,0.0465687
6.099e-02,0.0461
6.100e-02,0.04505
6.101e-02,0.044275
6.102e-02,0.0432
6.104e-02,0.0419125
6.105e-02,0.0404469
6.106e-02,0.0392719
6.108e-02,0.0387969
6.109e-02,0.037525
6.110e-02,0.03615
6.111e-02,0.0359687
6.113e-02,0.0360875
6.114e-02,0.0353875
6.115e-02,0.0340031
6.116e-02,0.0331375
6.118e-02,0.0333312
6.119e-02,0.0329562
6.120e-02,0.0319156
6.122e-02,0.0323375
6.123e-02,0.0318812
6.124e-02,0.0310312
6.125e-02,0.0301156
6.127e-02,0.029675
6.128e-02,0.0288969
6.129e-02,0.0278625
6.131e-02,0.0272437
6.132e-02,0.0266375
6.133e-02,0.0256094
6.134e-02,0.0256031
6.136e-02,0.0261062
6.137e-02,0.0264469
6.138e-02,0.0261625
6.140e-02,0.0255
6.141e-02,0.0251875
6.142e-02,0.0252906
6.143e-02,0.0250656
6.145e-02,0.0246812
6.146e-02,0.0241687
6.147e-02,0.0243281
6.148e-02,0.0240625
6.150e-02,0.0243812
6.151e-02,0.0246656
6.152e-02,0.0244781
6.154e-02,0.0238281
6.155e-02,0.023525
6.156e-02,0.0227687
6.157e-02,0.0221844
6.159e-02,0.0215969
6.160e-02,0.0213937
6.161e-02,0.0211406
6.163e-02,0.021475
6.164e-02,0.0217687
6.165e-02,0.0221094
6.166e-02,0.0228062
6.168e-02,0.0227219
6.169e-02,0.0231312
6.170e-02,0.0224281
6.172e-02,0.0216219
6.173e-02,0.0216281
6.174e-02,0.0210406
6.175e-02,0.0205406
6.177e-02,0.0200344
6.178e-02,0.0201094
6.179e-02,0.0201219
6.180e-02,0.0199437
6.182e-02,0.020225
6.183e-02,0.0209219
6.184e-02,0.0209125
6.186e-02,0.0210437
6.187e-02,0.0207906
6.188e-02,0.0209125
6.189e-02,0.0219969
6.191e-02,0.0213594
6.192e-02,0.0206125
6.193e-02,0.0201906
6.195e-02,0.01975
6.196e-02,0.0192562
6.197e-02,0.0192594
6.198e-02,0.0198344
6.200e-02,0.0197531
6.201e-02,0.0196187
6.202e-02,0.0195656
6.204e-02,0.0198906
6.205e-02,0.0202
6.206e-02,0.0208719
6.207e-02,0.0206125
6.209e-02,0.0205031
6.210e-02,0.0206562
6.211e-02,0.0205312
6.212e-02,0.0200562
6.214e-02,0.0205844
6.215e-02,0.0215344
6.216e-02,0.0214781
6.218e-02,0.0212594
6.219e-02,0.0208844
6.220e-02,0.0208656
6.221e-02,0.0206625
6.223e-02,0.0206406
6.224e-02,0.0203656
6.225e-02,0.0196281
6.227e-02,0.0193312
6.228e-02,0.019075
6.229e-02,0.0185406
6.230e-02,0.0185656
6.232e-02,0.0191844
6.233e-02,0.0193219
6.234e-02,0.0193906
6.236e-02,0.0185844
6.237e-02,0.0184031
6.238e-02,0.0183312
6.239e-02,0.0178375
6.241e-02,0.0173344
6.242e-02,0.0173875
6.243e-02,0.0177687
6.244e-02,0.0175969
6.246e-02,0.0182969
6.247e-02,0.0190969
6.248e-02,0.0191844
6.250e-02,0.0192781
6.251e-02,0.0192219
6.252e-02,0.0196812
6.253e-02,0.0202375
6.255e-02,0.0207219
6.256e-02,0.0213719
6.257e-02,0.0213187
6.259e-02,0.0215094
6.260e-02,0.0212656
6.261e-02,0.0209437
6.262e-02,0.020075
6.264e-02,0.0199781
6.265e-02,0.0199094
6.266e-02,0.0201656
6.268e-02,0.0200437
6.269e-02,0.0196469
6.270e-02,0.0194094
6.271e-02,0.0193937
6.273e-02,0.0199531
6.274e-02,0.0203937
6.275e-02,0.0209594
6.276e-02,0.0206937
6.278e-02,0.0207406
6.279e-02,0.0206906
6.280e-02,0.0206437
6.282e-02,0.0202875
6.283e-02,0.0202719
6.284e-02,0.0204125
6.285e-02,0.0210125
6.287e-02,0.0209875
6.288e-02,0.0208656
6.289e-02,0.0209094
6.291e-02,0.0209281
6.292e-02,0.0212156
6.293e-02,0.0214469
6.294e-02,0.0215844
6.296e-02,0.0213906
6.297e-02,0.0213219
6.298e-02,0.0221375
6.300e-02,0.0219625
6.301e-02,0.0221344
6.302e-02,0.0219031
6.303e-02,0.0213812
6.305e-02,0.0209031
6.306e-02,0.0205469
6.307e-02,0.0202656
6.308e-02,0.0202875
6.310e-02,0.0205937
6.311e-02,0.0212187
6.312e-02,0.0209406
6.314e-02,0.0208187
6.315e-02,0.020575
6.316e-02,0.0207781
6.317e-02,0.0207031
6.319e-02,0.0201219
6.320e-02,0.0198562
6.321e-02,0.0201125
6.323e-02,0.0200406
6.324e-02,0.0201031
6.325e-02,0.0200219
6.326e-02,0.0200375
6.328e-02,0.0203187
6.329e-02,0.0204156
6.330e-02,0.0203906
6.332e-02,0.02005
6.333e-02,0.0197906
6.334e-02,0.0200219
6.335e-02,0.0207094
6.337e-02,0.0205812
6.338e-02,0.0202312
6.339e-02,0.0203281
6.340e-02,0.0204719
6.342e-02,0.0203437
6.343e-02,0.0200094
6.344e-02,0.0195219
6.346e-02,0.0193594
6.347e-02,0.0201969
6.348e-02,0.0204469
6.349e-02,0.0203469
6.351e-02,0.0199312
6.352e-02,0.0200031
6.353e-02,0.0196812
6.355e-02,0.0203969
6.356e-02,0.02015
6.357e-02,0.0198937
6.358e-02,0.0194656
6.360e-02,0.019225
6.361e-02,0.0190281
6.362e-02,0.0192937
6.364e-02,0.0193031
6.365e-02,0.0189562
6.366e-02,0.0188312
6.367e-02,0.0187281
6.369e-02,0.01935
6.370e-02,0.01925
6.371e-02,0.0193844
6.372e-02,0.0197281
6.374e-02,0.0196969
6.375e-02,0.0198406
6.376e-02,0.0195156
6.378e-02,0.0198156
6.379e-02,0.0202344
6.380e-02,0.0201625
6.381e-02,0.0196781
6.383e-02,0.0199312
6.384e-02,0.0202156
6.385e-02,0.0201219
6.387e-02,0.0202437
6.388e-02,0.020375
6.389e-02,0.0208219
6.390e-02,0.0210625
6.392e-02,0.0209594
6.393e-02,0.0208531
6.394e-02,0.0208531
6.396e-02,0.0207156
6.397e-02,0.0206094
6.398e-02,0.0204625
6.399e-02,0.0209687
6.401e-02,0.0210062
6.402e-02,0.0205969
6.403e-02,0.0214062
6.404e-02,0.0220219
6.406e-02,0.0222844
6.407e-02,0.021675
6.408e-02,0.0211406
6.410e-02,0.0208156
6.411e-02,0.0214437
6.412e-02,0.0216125
6.413e-02,0.0215219
6.415e-02,0.0216406
6.416e-02,0.0216031
6.417e-02,0.0220156
6.419e-02,0.0224437
6.420e-02,0.0223844
6.421e-02,0.0233437
6.422e-02,0.0235
6.424e-02,0.0234156
6.425e-02,0.0236312
6.426e-02,0.0236812
6.428e-02,0.0229375
6.429e-02,0.0228312
6.430e-02,0.0226844
6.431e-02,0.0226062
6.433e-02,0.0232656
6.434e-02,0.0236031
6.435e-02,0.0234
6.436e-02,0.0236969
6.438e-02,0.0238562
6.439e-02,0.0247344
6.440e-02,0.0247844
6.442e-02,0.0246625
6.443e-02,0.02475
6.444e-02,0.0251375
6.445e-02,0.0258187
6.447e-02,0.0258937
6.448e-02,0.0257437
6.449e-02,0.0256969
6.451e-02,0.025525
6.452e-02,0.0260781
6.453e-02,0.026725
6.454e-02,0.0275812
6.456e-02,0.0279344
6.457e-02,0.0280125
6.458e-02,0.0282719
6.460e-02,0.0277969
6.461e-02,0.0279375
6.462e-02,0.0277344
6.463e-02,0.0274844
6.465e-02,0.0276156
6.466e-02,0.0279875
6.467e-02,0.0284875
6.468e-02,0.0291312
6.470e-02,0.0296406
6.471e-02,0.0287625
6.472e-02,0.0290562
6.474e-02,0.0293937
6.475e-02,0.0293062
6.476e-02,0.0294437
6.477e-02,0.0292687
6.479e-02,0.0296375
6.480e-02,0.0316156
6.481e-02,0.0322031
6.483e-02,0.0323844
6.484e-02,0.0325687
6.485e-02,0.0327562
6.486e-02,0.0330844
6.488e-02,0.0330094
6.489e-02,0.0327187
6.490e-02,0.0324
6.492e-02,0.0326187
6.493e-02,0.0321594
6.494e-02,0.0320031
6.495e-02,0.0324406
6.497e-02,0.032125
6.498e-02,0.0318531
6.499e-02,0.0323812
6.500e-02,0.0335562
6.502e-02,0.0339062
6.503e-02,0.0337969
6.504e-02,0.0353625
6.506e-02,0.0365312
6.507e-02,0.0368187
6.508e-02,0.0365906
6.509e-02,0.0376594
6.511e-02,0.0389562
6.512e-02,0.0406031
6.513e-02,0.0412594
6.515e-02,0.0419344
6.516e-02,0.0429312
6.517e-02,0.0440469
6.518e-02,0.0443594
6.520e-02,0.0437625
6.521e-02,0.0447562
6.522e-02,0.0444031
6.524e-02,0.0443156
6.525e-02,0.0443031
6.526e-02,0.0448
6.527e-02,0.0458156
6.529e-02,0.0464781
6.530e-02,0.0474687
6.531e-02,0.048675
6.532e-02,0.0503281
6.534e-02,0.0515687
6.535e-02,0.0512812
6.536e-02,0.0519406
6.538e-02,0.0523156
6.539e-02,0.05305
6.540e-02,0.0536656
6.541e-02,0.0531812
6.543e-02,0.0528687
6.544e-02,0.0528875
6.545e-02,0.0529094
6.547e-02,0.0530687
6.548e-02,0.0548562
6.549e-02,0.0546875
6.550e-02,0.0549906
6.552e-02,0.0559281
6.553e-02,0.055975
6.554e-02,0.0557625
6.556e-02,0.055
6.557e-02,0.0567375
6.558e-02,0.05755
6.559e-02,0.0569531
6.561e-02,0.055675
6.562e-02,0.0545375
6.563e-02,0.0540937
6.564e-02,0.0544031
6.566e-02,0.0538
6.567e-02,0.0528687
6.568e-02,0.0526219
6.570e-02,0.0536031
6.571e-02,0.0529687
6.572e-02,0.0520125
6.573e-02,0.0511437
6.575e-02,0.0503281
6.576e-02,0.0495344
6.577e-02,0.0496062
6.579e-02,0.0504312
6.580e-02,0.0498031
6.581e-02,0.0487531
6.582e-02,0.0485812
6.584e-02,0.0485281
6.585e-02,0.0475062
6.586e-02,0.0448469
6.588e-02,0.0432031
6.589e-02,0.0432312
6.590e-02,0.0433562
6.591e-02,0.0440969
6.593e-02,0.0435594
6.594e-02,0.0426375
6.595e-02,0.0415656
6.596e-02,0.0395281
6.598e-02,0.0382219
6.599e-02,0.0375781
6.600e-02,0.0371562
6.602e-02,0.0366375
6.603e-02,0.0356687
6.604e-02,0.0355
6.605e-02,0.0358156
6.607e-02,0.0359781
6.608e-02,0.0351062
6.609e-02,0.0341281
6.611e-02,0.0328781
6.612e-02,0.0321625
6.613e-02,0.0319937
6.614e-02,0.0310844
6.616e-02,0.031
6.617e-02,0.0307594
6.618e-02,0.0303062
6.620e-02,0.0302437
6.621e-02,0.0304687
6.622e-02,0.0303781
6.623e-02,0.0309594
6.625e-02,0.03155
6.626e-02,0.0307656
6.627e-02,0.0298469
6.628e-02,0.0295187
6.630e-02,0.029375
6.631e-02,0.0296125
6.632e-02,0.0297844
6.634e-02,0.0296094
6.635e-02,0.0289625
6.636e-02,0.0281594
6.637e-02,0.027275
6.639e-02,0.0272844
6.640e-02,0.0279125
6.641e-02,0.0284062
6.643e-02,0.0286531
6.644e-02,0.0278312
6.645e-02,0.0278094
6.646e-02,0.0280406
6.648e-02,0.0279656
6.649e-02,0.0279969
6.650e-02,0.0276781
6.652e-02,0.0283625
6.653e-02,0.0285875
6.654e-02,0.0283312
6.655e-02,0.0273281
6.657e-02,0.0272219
6.658e-02,0.0269594
6.659e-02,0.0263844
6.660e-02,0.0261375
6.662e-02,0.0267062
6.663e-02,0.0271437
6.664e-02,0.0273062
6.666e-02,0.0271344
6.667e-02,0.0271875
6.668e-02,0.0278625
6.669e-02,0.0280312
6.671e-02,0.0272594
6.672e-02,0.0267687
6.673e-02,0.0260594
6.675e-02,0.0266031
6.676e-02,0.0266437
6.677e-02,0.0265375
6.678e-02,0.0256219
6.680e-02,0.0260375
6.681e-02,0.0253656
6.682e-02,0.0250469
6.684e-02,0.0240344
6.685e-02,0.02325
6.686e-02,0.0235375
6.687e-02,0.0232656
6.689e-02,0.0242281
6.690e-02,0.0238406
6.691e-02,0.0238281
6.692e-02,0.02395
6.694e-02,0.0240344
6.695e-02,0.023525
6.696e-02,0.0233437
6.698e-02,0.0233625
6.699e-02,0.0229031
6.700e-02,0.0226875
6.701e-02,0.0225187
6.703e-02,0.0222031
6.704e-02,0.0222469
6.705e-02,0.02205
6.707e-02,0.0225781
6.708e-02,0.0221406
6.709e-02,0.0217812
6.710e-02,0.0218906
6.712e-02,0.0212125
6.713e-02,0.0211125
6.714e-02,0.0213625
6.716e-02,0.0215562
6.717e-02,0.0218281
6.718e-02,0.0217219
6.719e-02,0.0216062
6.721e-02,0.0216969
6.722e-02,0.0213781
6.723e-02,0.0208406
6.724e-02,0.0205125
6.726e-02,0.0201562
6.727e-02,0.0202594
6.728e-02,0.0195031
6.730e-02,0.0197656
6.731e-02,0.0199187
6.732e-02,0.019675
6.733e-02,0.0194562
6.735e-02,0.0194906
6.736e-02,0.0198031
6.737e-02,0.0204125
6.739e-02,0.0206937
6.740e-02,0.0205875
6.741e-02,0.0202312
6.742e-02,0.0201156
6.744e-02,0.0202031
6.745e-02,0.0203625
6.746e-02,0.0198625
6.748e-02,0.019525
6.749e-02,0.0196156
6.750e-02,0.0195906
6.751e-02,0.0201562
6.753e-02,0.0200125
6.754e-02,0.020025
6.755e-02,0.0195656
6.756e-02,0.0191906
6.758e-02,0.0194875
6.759e-02,0.0201469
6.760e-02,0.0201344
6.762e-02,0.020425
6.763e-02,0.0201594
6.764e-02,0.0200719
6.765e-02,0.0201969
6.767e-02,0.0198062
6.768e-02,0.0199562
6.769e-02,0.0193906
6.771e-02,0.019025
6.772e-02,0.019025
6.773e-02,0.0191281
6.774e-02,0.0198594
6.776e-02,0.0206656
6.777e-02,0.0210156
6.778e-02,0.0207469
6.780e-02,0.0202344
6.781e-02,0.0209781
6.782e-02,0.0215375
6.783e-02,0.0214625
6.785e-02,0.0209875
6.786e-02,0.0213281
6.787e-02,0.0217156
6.788e-02,0.020925
6.790e-02,0.0203781
6.791e-02,0.0202062
6.792e-02,0.0201062
6.794e-02,0.0202625
6.795e-02,0.0197937
6.796e-02,0.0194375
6.797e-02,0.0201625
6.799e-02,0.0200312
6.800e-02,0.0198187
6.801e-02,0.0201937
6.803e-02,0.0200969
6.804e-02,0.020575
6.805e-02,0.0201844
6.806e-02,0.0197844
6.808e-02,0.0200969
6.809e-02,0.0203875
6.810e-02,0.02065
6.812e-02,0.0207219
6.813e-02,0.0205969
6.814e-02,0.0208812
6.815e-02,0.0215687
6.817e-02,0.0224656
6.818e-02,0.0224062
6.819e-02,0.022325
6.820e-02,0.0227
6.822e-02,0.0227344
6.823e-02,0.0228125
6.824e-02,0.0228812
6.826e-02,0.0233344
6.827e-02,0.0236687
6.828e-02,0.0230812
6.829e-02,0.0226094
6.831e-02,0.0225781
6.832e-02,0.02245
6.833e-02,0.0223156
6.835e-02,0.0223875
6.836e-02,0.0225531
6.837e-02,0.0227
6.838e-02,0.0229937
6.840e-02,0.0232719
6.841e-02,0.0227281
6.842e-02,0.0231219
6.844e-02,0.023525
6.845e-02,0.0231781
6.846e-02,0.0232094
6.847e-02,0.0223875
6.849e-02,0.0216344
6.850e-02,0.0218594
6.851e-02,0.0219406
6.852e-02,0.0217125
6.854e-02,0.0223437
6.855e-02,0.0228656
6.856e-02,0.0233656
6.858e-02,0.0240875
6.859e-02,0.0246656
6.860e-02,0.0249906
6.861e-02,0.0252344
6.863e-02,0.0254844
6.864e-02,0.0254406
6.865e-02,0.0257719
6.867e-02,0.0271125
6.868e-02,0.0269094
6.869e-02,0.0269594
6.870e-02,0.0274531
6.872e-02,0.0267656
6.873e-02,0.0265906
6.874e-02,0.0262219
6.876e-02,0.0261562
6.877e-02,0.0253719
6.878e-02,0.0250594
6.879e-02,0.0249406
6.881e-02,0.0254125
6.882e-02,0.0260719
6.883e-02,0.0270937
6.884e-02,0.0280656
6.886e-02,0.0279687
6.887e-02,0.0294094
6.888e-02,0.0302219
6.890e-02,0.0310844
6.891e-02,0.0310187
6.892e-02,0.0324812
6.893e-02,0.0337375
6.895e-02,0.0354531
6.896e-02,0.0375844
6.897e-02,0.0375719
6.899e-02,0.0383844
6.900e-02,0.0388125
6.901e-02,0.0397062
6.902e-02,0.0406125
6.904e-02,0.0409187
6.905e-02,0.0409469
6.906e-02,0.0411469
6.908e-02,0.041925
6.909e-02,0.0422875
6.910e-02,0.0438562
6.911e-02,0.0448875
6.913e-02,0.0452281
6.914e-02,0.0456781
6.915e-02,0.0474906
6.916e-02,0.0491875
6.918e-02,0.0499562
6.919e-02,0.0503281
6.920e-02,0.0501875
6.922e-02,0.0500625
6.923e-02,0.0502094
6.924e-02,0.0505719
6.925e-02,0.0514469
6.927e-02,0.0521375
6.928e-02,0.0513937
6.929e-02,0.0515281
6.931e-02,0.051675
6.932e-02,0.0523344
6.933e-02,0.0534094
6.934e-02,0.05355
6.936e-02,0.0536469
6.937e-02,0.0535937
6.938e-02,0.0523937
6.940e-02,0.0521031
6.941e-02,0.0526062
6.942e-02,0.0527687
6.943e-02,0.0535094
6.945e-02,0.0539562
6.946e-02,0.0543406
6.947e-02,0.0550219
6.948e-02,0.0545625
6.950e-02,0.0532125
6.951e-02,0.0527
6.952e-02,0.0525094
6.954e-02,0.0520219
6.955e-02,0.0519812
6.956e-02,0.0521094
6.957e-02,0.0506594
6.959e-02,0.0493812
6.960e-02,0.0482375
6.961e-02,0.0469625
6.963e-02,0.0472437
6.964e-02,0.0471094
6.965e-02,0.0459219
6.966e-02,0.0456531
6.968e-02,0.0441
6.969e-02,0.0416781
6.970e-02,0.0398062
6.972e-02,0.0393281
6.973e-02,0.0387812
6.974e-02,0.0377375
6.975e-02,0.0361281
6.977e-02,0.0358875
6.978e-02,0.0353562
6.979e-02,0.0344094
6.980e-02,0.0342062
6.982e-02,0.0337719
6.983e-02,0.0324062
6.984e-02,0.0314062
6.986e-02,0.0313094
6.987e-02,0.0313594
6.988e-02,0.0304406
6.989e-02,0.0298812
6.991e-02,0.0293906
6.992e-02,0.0293281
6.993e-02,0.0287656
6.995e-02,0.0275094
6.996e-02,0.0268937
6.997e-02,0.0266031
6.998e-02,0.0264094
7.000e-02,0.0258719
7.001e-02,0.0253656
7.002e-02,0.0245125
7.004e-02,0.0239656
7.005e-02,0.0235125
7.006e-02,0.0233187
7.007e-02,0.0235406
7.009e-02,0.0231719
7.010e-02,0.0228844
7.011e-02,0.0229344
7.012e-02,0.023625
7.014e-02,0.0237344
7.015e-02,0.0229375
7.016e-02,0.0229031
7.018e-02,0.0225437
7.019e-02,0.0225062
7.020e-02,0.0226937
7.021e-02,0.0222156
7.023e-02,0.021475
7.024e-02,0.0212094
7.025e-02,0.0212812
7.027e-02,0.0212781
7.028e-02,0.0220219
7.029e-02,0.0220187
7.030e-02,0.0225125
7.032e-02,0.0224
7.033e-02,0.0212781
7.034e-02,0.0208656
7.036e-02,0.0210875
7.037e-02,0.0217937
7.038e-02,0.0221812
7.039e-02,0.0221906
7.041e-02,0.0224875
7.042e-02,0.0222062
7.043e-02,0.0228406
7.044e-02,0.0229875
7.046e-02,0.0228594
7.047e-02,0.0236281
7.048e-02,0.023925
7.050e-02,0.0240375
7.051e-02,0.0234125
7.052e-02,0.023175
7.053e-02,0.0227344
7.055e-02,0.0230812
7.056e-02,0.0237062
7.057e-02,0.0231219
7.059e-02,0.02295
7.060e-02,0.0226062
7.061e-02,0.0222406
7.062e-02,0.0217844
7.064e-02,0.0215375
7.065e-02,0.0217344
7.066e-02,0.0215875
7.068e-02,0.0217562
7.069e-02,0.0215906
7.070e-02,0.021375
7.071e-02,0.0217312
7.073e-02,0.0221219
7.074e-02,0.022375
7.075e-02,0.0226281
7.076e-02,0.0228719
7.078e-02,0.0227187
7.079e-02,0.0220594
7.080e-02,0.0215469
7.082e-02,0.0225437
7.083e-02,0.02205
7.084e-02,0.0216281
7.085e-02,0.0212094
7.087e-02,0.0218594
7.088e-02,0.0224906
7.089e-02,0.0224312
7.091e-02,0.0220687
7.092e-02,0.0224031
7.093e-02,0.0227062
7.094e-02,0.0228125
7.096e-02,0.0225031
7.097e-02,0.0220937
7.098e-02,0.0220906
7.100e-02,0.0220937
7.101e-02,0.0217781
7.102e-02,0.0215031
7.103e-02,0.0214437
7.105e-02,0.0215187
7.106e-02,0.021775
7.107e-02,0.0214844
7.108e-02,0.0206969
7.110e-02,0.0205344
7.111e-02,0.0206594
7.112e-02,0.0204844
7.114e-02,0.0203437
7.115e-02,0.020275
7.116e-02,0.0203656
7.117e-02,0.0214281
7.119e-02,0.0214937
7.120e-02,0.0218031
7.121e-02,0.0222719
7.123e-02,0.0221406
7.124e-02,0.0222
7.125e-02,0.0222031
7.126e-02,0.0223781
7.128e-02,0.02295
7.129e-02,0.0230094
7.130e-02,0.0233406
7.132e-02,0.0238875
7.133e-02,0.0241375
7.134e-02,0.0250094
7.135e-02,0.0248594
7.137e-02,0.0243687
7.138e-02,0.0246094
7.139e-02,0.0252031
7.140e-02,0.0252812
7.142e-02,0.0254156
7.143e-02,0.02515
7.144e-02,0.0250906
7.146e-02,0.0257062
7.147e-02,0.0260937
7.148e-02,0.0263906
7.149e-02,0.0257625
7.151e-02,0.0251281
7.152e-02,0.0253594
7.153e-02,0.0245375
7.155e-02,0.0238625
7.156e-02,0.0237781
7.157e-02,0.0238875
7.158e-02,0.024375
7.160e-02,0.0246969
7.161e-02,0.0248719
7.162e-02,0.0249844
7.164e-02,0.0245906
7.165e-02,0.0243312
7.166e-02,0.0241844
7.167e-02,0.0240344
7.169e-02,0.0243719
7.170e-02,0.0238437
7.171e-02,0.0239125
7.172e-02,0.0240125
7.174e-02,0.0239094
7.175e-02,0.0234406
7.176e-02,0.0233469
7.178e-02,0.0229562
7.179e-02,0.0230781
7.180e-02,0.0229437
7.181e-02,0.0229312
7.183e-02,0.0227656
7.184e-02,0.0231156
7.185e-02,0.0233281
7.187e-02,0.0232406
7.188e-02,0.0228219
7.189e-02,0.0227406
7.190e-02,0.0222187
7.192e-02,0.0217094
7.193e-02,0.0214875
7.194e-02,0.02185
7.196e-02,0.0219281
7.197e-02,0.0217594
7.198e-02,0.0216344
7.199e-02,0.0215344
7.201e-02,0.0215437
7.202e-02,0.0218906
7.203e-02,0.0221156
7.204e-02,0.0218406
7.206e-02,0.0217875
7.207e-02,0.0222656
7.208e-02,0.0216219
7.210e-02,0.0209562
7.211e-02,0.0208562
7.212e-02,0.0211437
7.213e-02,0.0211156
7.215e-02,0.0210156
7.216e-02,0.0214094
7.217e-02,0.0214156
7.219e-02,0.0214469
7.220e-02,0.0214594
7.221e-02,0.0211625
7.222e-02,0.0211406
7.224e-02,0.0215219
7.225e-02,0.0217375
7.226e-02,0.0215875
7.228e-02,0.0214
7.229e-02,0.0215187
7.230e-02,0.0211875
7.231e-02,0.0205906
7.233e-02,0.0207812
7.234e-02,0.0201406
7.235e-02,0.020625
7.236e-02,0.0206781
7.238e-02,0.0209531
7.239e-02,0.0213469
7.240e-02,0.021625
7.242e-02,0.022725
7.243e-02,0.0230094
7.244e-02,0.0231312
7.245e-02,0.0224219
7.247e-02,0.0227937
7.248e-02,0.0229656
7.249e-02,0.0229656
7.251e-02,0.0230844
7.252e-02,0.0230031
7.253e-02,0.023075
7.254e-02,0.0242031
7.256e-02,0.0247
7.257e-02,0.0245156
7.258e-02,0.0245906
7.260e-02,0.024425
7.261e-02,0.023725
7.262e-02,0.0235344
7.263e-02,0.0234719
7.265e-02,0.0233844
7.266e-02,0.0237469
7.267e-02,0.0234
7.268e-02,0.0224281
7.270e-02,0.022225
7.271e-02,0.0216344
7.272e-02,0.0210687
7.274e-02,0.0210969
7.275e-02,0.02145
7.276e-02,0.0215844
7.277e-02,0.02095
7.279e-02,0.0206375
7.280e-02,0.0207844
7.281e-02,0.0220437
7.283e-02,0.0228812
7.284e-02,0.0230531
7.285e-02,0.0233531
7.286e-02,0.0239219
7.288e-02,0.0240562
7.289e-02,0.0236625
7.290e-02,0.0234656
7.292e-02,0.0235719
7.293e-02,0.0237187
7.294e-02,0.0241062
7.295e-02,0.0248656
7.297e-02,0.0255906
7.298e-02,0.0259062
7.299e-02,0.0264781
7.300e-02,0.0266844
7.302e-02,0.0266656
7.303e-02,0.0263031
7.304e-02,0.0262437
7.306e-02,0.027325
7.307e-02,0.0264281
7.308e-02,0.0260781
7.309e-02,0.0259469
7.311e-02,0.0261594
7.312e-02,0.0268937
7.313e-02,0.0281312
7.315e-02,0.0281875
7.316e-02,0.0278594
7.317e-02,0.0272719
7.318e-02,0.0277469
7.320e-02,0.0284562
7.321e-02,0.0286031
7.322e-02,0.0287906
7.324e-02,0.0291094
7.325e-02,0.0289375
7.326e-02,0.029025
7.327e-02,0.0296781
7.329e-02,0.0296812
7.330e-02,0.0302781
7.331e-02,0.0313094
7.332e-02,0.03135
7.334e-02,0.0324844
7.335e-02,0.0331781
7.336e-02,0.0333312
7.338e-02,0.0335469
7.339e-02,0.0343156
7.340e-02,0.0350562
7.341e-02,0.0349312
7.343e-02,0.0350937
7.344e-02,0.0360187
7.345e-02,0.0368719
7.347e-02,0.03735
7.348e-02,0.0394594
7.349e-02,0.0404594
7.350e-02,0.0413531
7.352e-02,0.0424312
7.353e-02,0.04235
7.354e-02,0.0417656
7.356e-02,0.0427406
7.357e-02,0.0431531
7.358e-02,0.0436625
7.359e-02,0.0440125
7.361e-02,0.0447875
7.362e-02,0.0444781
7.363e-02,0.0445875
7.364e-02,0.0458625
7.366e-02,0.0465594
7.367e-02,0.0476375
7.368e-02,0.0485437
7.370e-02,0.048875
7.371e-02,0.0492062
7.372e-02,0.0506
7.373e-02,0.0508437
7.375e-02,0.0511781
7.376e-02,0.0518781
7.377e-02,0.0518937
7.379e-02,0.0532469
7.380e-02,0.0544437
7.381e-02,0.0550219
7.382e-02,0.0559
7.384e-02,0.056075
7.385e-02,0.0547875
7.386e-02,0.0545906
7.388e-02,0.0540875
7.389e-02,0.0539687
7.390e-02,0.0532219
7.391e-02,0.05275
7.393e-02,0.0524125
7.394e-02,0.0517469
7.395e-02,0.0507187
7.396e-02,0.0505906
7.398e-02,0.0506719
7.399e-02,0.04995
7.400e-02,0.0493312
7.402e-02,0.0499187
7.403e-02,0.048875
7.404e-02,0.0483625
7.405e-02,0.0484281
7.407e-02,0.048725
7.408e-02,0.0475219
7.409e-02,0.0476812
7.411e-02,0.0470687
7.412e-02,0.0455062
7.413e-02,0.0440375
7.414e-02,0.0433531
7.416e-02,0.0416687
7.417e-02,0.0404906
7.418e-02,0.0400437
7.420e-02,0.0388875
7.421e-02,0.0379937
7.422e-02,0.0374125
7.423e-02,0.0358125
7.425e-02,0.0354781
7.426e-02,0.0347344
7.427e-02,0.0334281
7.428e-02,0.0325344
7.430e-02,0.03115
7.431e-02,0.0304937
7.432e-02,0.0297375
7.434e-02,0.0295062
7.435e-02,0.0285031
7.436e-02,0.0277437
7.437e-02,0.0279719
7.439e-02,0.0273531
7.440e-02,0.0278344
7.441e-02,0.0276719
7.443e-02,0.0271594
7.444e-02,0.0269187
7.445e-02,0.0267687
7.446e-02,0.0261812
7.448e-02,0.0254969
7.449e-02,0.02445
7.450e-02,0.0234187
7.452e-02,0.0228844
7.453e-02,0.0227
7.454e-02,0.0228781
7.455e-02,0.022975
7.457e-02,0.0233812
7.458e-02,0.0230031
7.459e-02,0.0223937
7.460e-02,0.0221812
7.462e-02,0.0221531
7.463e-02,0.0223437
7.464e-02,0.0221812
7.466e-02,0.0217812
7.467e-02,0.0218375
7.468e-02,0.0220937
7.469e-02,0.0222375
7.471e-02,0.022525
7.472e-02,0.0222375
7.473e-02,0.0218125
7.475e-02,0.0210062
7.476e-02,0.0207312
7.477e-02,0.0200562
7.478e-02,0.0209
7.480e-02,0.0211125
7.481e-02,0.0210781
7.482e-02,0.0209312
7.484e-02,0.0206094
7.485e-02,0.0203
7.486e-02,0.0200781
7.487e-02,0.0201375
7.489e-02,0.0199375
7.490e-02,0.0200281
7.491e-02,0.0199687
7.492e-02,0.02015
7.494e-02,0.0207844
7.495e-02,0.0210937
7.496e-02,0.0206562
7.498e-02,0.0206656
7.499e-02,0.0206906
7.500e-02,0.0205562
7.501e-02,0.0204344
7.503e-02,0.0202062
7.504e-02,0.02035
7.505e-02,0.0203281
7.507e-02,0.0199437
7.508e-02,0.0195781
7.509e-02,0.0193719
7.510e-02,0.0189469
7.512e-02,0.0194781
7.513e-02,0.01975
7.514e-02,0.0199812
7.516e-02,0.0203312
7.517e-02,0.0199656
7.518e-02,0.0201812
7.519e-02,0.0203687
7.521e-02,0.0199781
7.522e-02,0.0198
7.523e-02,0.0198219
7.524e-02,0.0197531
7.526e-02,0.0197312
7.527e-02,0.0199812
7.528e-02,0.0201844
7.530e-02,0.0199125
7.531e-02,0.0200594
7.532e-02,0.0201594
7.533e-02,0.0200906
7.535e-02,0.0199937
7.536e-02,0.0207719
7.537e-02,0.0214469
7.539e-02,0.0217125
7.540e-02,0.0216219
7.541e-02,0.0214875
7.542e-02,0.0212969
7.544e-02,0.0216844
7.545e-02,0.0217094
7.546e-02,0.0209094
7.548e-02,0.0205781
7.549e-02,0.0201437
7.550e-02,0.0201594
7.551e-02,0.0203656
7.553e-02,0.0200562
7.554e-02,0.0200344
7.555e-02,0.0204375
7.556e-02,0.0200562
7.558e-02,0.0198406
7.559e-02,0.0200031
7.560e-02,0.0206719
7.562e-02,0.0207594
7.563e-02,0.020725
7.564e-02,0.0211219
7.565e-02,0.0211375
7.567e-02,0.021
7.568e-02,0.020975
7.569e-02,0.0212031
7.571e-02,0.0216719
7.572e-02,0.0214594
7.573e-02,0.0208375
7.574e-02,0.0210406
7.576e-02,0.0218281
7.577e-02,0.0217
7.578e-02,0.02175
7.580e-02,0.0217844
7.581e-02,0.021675
7.582e-02,0.0221187
7.583e-02,0.0226812
7.585e-02,0.0235437
7.586e-02,0.0238344
7.587e-02,0.0237469
7.588e-02,0.02395
7.590e-02,0.0236156
7.591e-02,0.0230406
7.592e-02,0.0228281
7.594e-02,0.0224687
7.595e-02,0.0227625
7.596e-02,0.02275
7.597e-02,0.0225656
7.599e-02,0.0224562
7.600e-02,0.0220531
7.601e-02,0.022025
7.603e-02,0.0223812
7.604e-02,0.0225844
7.605e-02,0.0229062
7.606e-02,0.022425
7.608e-02,0.021775
7.609e-02,0.0221594
7.610e-02,0.0222156
7.612e-02,0.0217656
7.613e-02,0.0216219
7.614e-02,0.0221
7.615e-02,0.0226469
7.617e-02,0.0234844
7.618e-02,0.0231625
7.619e-02,0.0239969
7.620e-02,0.0241625
7.622e-02,0.0239125
7.623e-02,0.023625
7.624e-02,0.0235594
7.626e-02,0.0235375
7.627e-02,0.0243437
7.628e-02,0.0239156
7.629e-02,0.0233187
7.631e-02,0.02325
7.632e-02,0.0234187
7.633e-02,0.0232719
7.635e-02,0.0224312
7.636e-02,0.0227531
7.637e-02,0.0235594
7.638e-02,0.0243875
7.640e-02,0.0239
7.641e-02,0.02425
7.642e-02,0.0234062
7.644e-02,0.0228531
7.645e-02,0.0225875
7.646e-02,0.022425
7.647e-02,0.0221125
7.649e-02,0.0217937
7.650e-02,0.0212937
7.651e-02,0.0213969
7.652e-02,0.0212656
7.654e-02,0.0214781
7.655e-02,0.0214187
7.656e-02,0.0213469
7.658e-02,0.0210094
7.659e-02,0.0210562
7.660e-02,0.0215156
7.661e-02,0.0223094
7.663e-02,0.0223187
7.664e-02,0.0227687
7.665e-02,0.0228125
7.667e-02,0.0220906
7.668e-02,0.0218625
7.669e-02,0.0219719
7.670e-02,0.0226969
7.672e-02,0.0228594
7.673e-02,0.0224031
7.674e-02,0.0215219
7.676e-02,0.0211406
7.677e-02,0.0211312
7.678e-02,0.0211
7.679e-02,0.0215531
7.681e-02,0.0215062
7.682e-02,0.0211469
7.683e-02,0.0207187
7.684e-02,0.0206719
7.686e-02,0.0204844
7.687e-02,0.020575
7.688e-02,0.0203562
7.690e-02,0.0209156
7.691e-02,0.0210312
7.692e-02,0.0204281
7.693e-02,0.020675
7.695e-02,0.0202406
7.696e-02,0.0201562
7.697e-02,0.0208375
7.699e-02,0.0212844
7.700e-02,0.0209281
7.701e-02,0.0209812
7.702e-02,0.0208406
7.704e-02,0.020875
7.705e-02,0.0212937
7.706e-02,0.0209062
7.708e-02,0.0210687
7.709e-02,0.0206375
7.710e-02,0.020325
7.711e-02,0.0202719
7.713e-02,0.0204812
7.714e-02,0.0204812
7.715e-02,0.0212875
7.716e-02,0.0217469
7.718e-02,0.021475
7.719e-02,0.0212594
7.720e-02,0.0214594
7.722e-02,0.021925
7.723e-02,0.0224812
7.724e-02,0.0223687
7.725e-02,0.0225469
7.727e-02,0.0233625
7.728e-02,0.0234781
7.729e-02,0.0233687
7.731e-02,0.0235062
7.732e-02,0.0228969
7.733e-02,0.0226687
7.734e-02,0.0231656
7.736e-02,0.0231281
7.737e-02,0.0231969
7.738e-02,0.0235031
7.740e-02,0.0241219
7.741e-02,0.0250687
7.742e-02,0.0254
7.743e-02,0.0249125
7.745e-02,0.0246094
7.746e-02,0.0251656
7.747e-02,0.0253344
7.748e-02,0.0254625
7.750e-02,0.0249844
7.751e-02,0.0252281
7.752e-02,0.0252969
7.754e-02,0.0251844
7.755e-02,0.0258062
7.756e-02,0.0265344
7.757e-02,0.0264844
7.759e-02,0.0263031
7.760e-02,0.0266187
7.761e-02,0.0273219
7.763e-02,0.0270969
7.764e-02,0.0269125
7.765e-02,0.0270625
7.766e-02,0.0267937
7.768e-02,0.0272125
7.769e-02,0.0273094
7.770e-02,0.0272781
7.772e-02,0.0272219
7.773e-02,0.0275937
7.774e-02,0.0276312
7.775e-02,0.0281437
7.777e-02,0.0286187
7.778e-02,0.0280937
7.779e-02,0.0281625
7.780e-02,0.0280531
7.782e-02,0.0284
7.783e-02,0.0289687
7.784e-02,0.0297375
7.786e-02,0.0300906
7.787e-02,0.0296812
7.788e-02,0.0296
7.789e-02,0.0299687
7.791e-02,0.0306406
7.792e-02,0.031775
7.793e-02,0.0324312
7.795e-02,0.0332469
7.796e-02,0.0340531
7.797e-02,0.03365
7.798e-02,0.0343625
7.800e-02,0.034825
7.801e-02,0.0352219
7.802e-02,0.0353875
7.804e-02,0.0355406
7.805e-02,0.0364375
7.806e-02,0.0376531
7.807e-02,0.0382031
7.809e-02,0.0387781
7.810e-02,0.03995
7.811e-02,0.0402469
7.812e-02,0.0417969
7.814e-02,0.0427312
7.815e-02,0.0435844
7.816e-02,0.043925
7.818e-02,0.0434437
7.819e-02,0.0441281
7.820e-02,0.0452031
7.821e-02,0.0467531
7.823e-02,0.0473125
7.824e-02,0.0483437
7.825e-02,0.0490281
7.827e-02,0.0494031
7.828e-02,0.0493062
7.829e-02,0.0499406
7.830e-02,0.0499719
7.832e-02,0.04985
7.833e-02,0.0499906
7.834e-02,0.0506625
7.836e-02,0.0514187
7.837e-02,0.0523406
7.838e-02,0.0528187
7.839e-02,0.0531625
7.841e-02,0.0542187
7.842e-02,0.0554344
7.843e-02,0.0559187
7.844e-02,0.0555906
7.846e-02,0.056725
7.847e-02,0.0566156
7.848e-02,0.0573562
7.850e-02,0.056825
7.851e-02,0.0566031
7.852e-02,0.0578437
7.853e-02,0.0586437
7.855e-02,0.0578906
7.856e-02,0.0567625
7.857e-02,0.0569469
7.859e-02,0.0559625
7.860e-02,0.0560656
7.861e-02,0.0553656
7.862e-02,0.0541219
7.864e-02,0.0537281
7.865e-02,0.0538812
7.866e-02,0.0532031
7.868e-02,0.052775
7.869e-02,0.0521
7.870e-02,0.0521125
7.871e-02,0.052425
7.873e-02,0.0517531
7.874e-02,0.0513
7.875e-02,0.0512687
7.876e-02,0.04985
7.878e-02,0.0497187
7.879e-02,0.0496094
7.880e-02,0.0476969
7.882e-02,0.0464625
7.883e-02,0.0456125
7.884e-02,0.0453719
7.885e-02,0.0451
7.887e-02,0.0439719
7.888e-02,0.0429844
7.889e-02,0.0418812
7.891e-02,0.0410437
7.892e-02,0.0404687
7.893e-02,0.0397844
7.894e-02,0.0395562
7.896e-02,0.0395
7.897e-02,0.0385719
7.898e-02,0.0377531
7.900e-02,0.0372875
7.901e-02,0.0359687
7.902e-02,0.0349625
7.903e-02,0.0341219
7.905e-02,0.0328437
7.906e-02,0.0318031
7.907e-02,0.0314094
7.908e-02,0.0309781
7.910e-02,0.0305719
7.911e-02,0.0298312
7.912e-02,0.0292906
7.914e-02,0.0289219
7.915e-02,0.0281437
7.916e-02,0.0274875
7.917e-02,0.0273906
7.919e-02,0.0271469
7.920e-02,0.0270437
7.921e-02,0.0267656
7.923e-02,0.0265844
7.924e-02,0.0262594
7.925e-02,0.0257281
7.926e-02,0.0248094
7.928e-02,0.0244562
7.929e-02,0.0248344
7.930e-02,0.0243875
7.932e-02,0.024075
7.933e-02,0.0252031
7.934e-02,0.0245812
7.935e-02,0.0237312
7.937e-02,0.0235531
7.938e-02,0.0234312
7.939e-02,0.0231687
7.940e-02,0.0230969
7.942e-02,0.0233781
7.943e-02,0.0233875
7.944e-02,0.0234156
7.946e-02,0.0237531
7.947e-02,0.0235781
7.948e-02,0.0227656
7.949e-02,0.0224469
7.951e-02,0.0218312
7.952e-02,0.0214844
7.953e-02,0.0213906
7.955e-02,0.0206906
7.956e-02,0.0201469
7.957e-02,0.020175
7.958e-02,0.0203844
7.960e-02,0.0204969
7.961e-02,0.0209062
7.962e-02,0.021425
7.964e-02,0.0213625
7.965e-02,0.0216656
7.966e-02,0.0217875
7.967e-02,0.0219312
7.969e-02,0.0214312
7.970e-02,0.0212344
7.971e-02,0.0210656
7.972e-02,0.020725
7.974e-02,0.0212625
7.975e-02,0.0215812
7.976e-02,0.0210344
7.978e-02,0.0206719
7.979e-02,0.0205406
7.980e-02,0.0199219
7.981e-02,0.0197969
7.983e-02,0.0199062


